interpolation:linear
wavelength,value
280.0,0.03618
280.5,0.03618
281.0,0.03618
281.5,0.03618
282.0,0.03618
282.5,0.03618
283.0,0.03618
283.5,0.03618
284.0,0.03618
284.5,0.03618
285.0,0.03618
285.5,0.03618
286.0,0.03618
286.5,0.03618
287.0,0.03618
287.5,0.03618
288.0,0.03618
288.5,0.03618
289.0,0.03618
289.5,0.03618
290.0,0.03618
290.5,0.03618
291.0,0.03618
291.5,0.03618
292.0,0.03618
292.5,0.03618
293.0,0.03618
293.5,0.03618
294.0,0.03618
294.5,0.03618
295.0,0.03618
295.5,0.03618
296.0,0.03618
296.5,0.03618
297.0,0.03618
297.5,0.03618
298.0,0.03618
298.5,0.03618
299.0,0.03618
299.5,0.03618
300.0,0.03618
300.5,0.036
301.0,0.03583
301.5,0.03565
302.0,0.03548
302.5,0.0353
303.0,0.03513
303.5,0.03495
304.0,0.03478
304.5,0.0346
305.0,0.03443
305.5,0.03425
306.0,0.03408
306.5,0.0339
307.0,0.03373
307.5,0.03355
308.0,0.03338
308.5,0.0332
309.0,0.03303
309.5,0.03285
310.0,0.03268
310.5,0.0325
311.0,0.03233
311.5,0.03215
312.0,0.03198
312.5,0.0318
313.0,0.03163
313.5,0.03145
314.0,0.03128
314.5,0.0311
315.0,0.03093
315.5,0.03075
316.0,0.03058
316.5,0.0304
317.0,0.03023
317.5,0.03005
318.0,0.02988
318.5,0.0297
319.0,0.02953
319.5,0.02935
320.0,0.02918
320.5,0.02906
321.0,0.02894
321.5,0.02883
322.0,0.02871
322.5,0.02859
323.0,0.02848
323.5,0.02836
324.0,0.02825
324.5,0.02813
325.0,0.02801
325.5,0.0279
326.0,0.02778
326.5,0.02766
327.0,0.02755
327.5,0.02743
328.0,0.02731
328.5,0.0272
329.0,0.02708
329.5,0.02696
330.0,0.02685
330.5,0.02673
331.0,0.02662
331.5,0.0265
332.0,0.02638
332.5,0.02627
333.0,0.02615
333.5,0.02603
334.0,0.02592
334.5,0.0258
335.0,0.02568
335.5,0.02557
336.0,0.02545
336.5,0.02534
337.0,0.02522
337.5,0.0251
338.0,0.02499
338.5,0.02487
339.0,0.02475
339.5,0.02464
340.0,0.02452
340.5,0.02447
341.0,0.02441
341.5,0.02435
342.0,0.02429
342.5,0.02423
343.0,0.02418
343.5,0.02412
344.0,0.02406
344.5,0.024
345.0,0.02395
345.5,0.02389
346.0,0.02383
346.5,0.02377
347.0,0.02372
347.5,0.02366
348.0,0.0236
348.5,0.02355
349.0,0.02349
349.5,0.02343
350.0,0.02337
350.5,0.02332
351.0,0.02326
351.5,0.0232
352.0,0.02315
352.5,0.02309
353.0,0.02303
353.5,0.02297
354.0,0.02292
354.5,0.02286
355.0,0.0228
355.5,0.02275
356.0,0.02269
356.5,0.02263
357.0,0.02258
357.5,0.02252
358.0,0.02246
358.5,0.0224
359.0,0.02235
359.5,0.02229
360.0,0.02223
360.5,0.02224
361.0,0.02224
361.5,0.02224
362.0,0.02224
362.5,0.02225
363.0,0.02225
363.5,0.02225
364.0,0.02225
364.5,0.02226
365.0,0.02226
365.5,0.02226
366.0,0.02226
366.5,0.02227
367.0,0.02227
367.5,0.02227
368.0,0.02227
368.5,0.02228
369.0,0.02228
369.5,0.02228
370.0,0.02229
370.5,0.02229
371.0,0.02229
371.5,0.0223
372.0,0.0223
372.5,0.0223
373.0,0.02231
373.5,0.02231
374.0,0.02231
374.5,0.02232
375.0,0.02232
375.5,0.02232
376.0,0.02233
376.5,0.02233
377.0,0.02233
377.5,0.02234
378.0,0.02234
378.5,0.02234
379.0,0.02235
379.5,0.02235
380.0,0.02236
380.5,0.02248
381.0,0.0226
381.5,0.02272
382.0,0.02285
382.5,0.02297
383.0,0.02309
383.5,0.02322
384.0,0.02334
384.5,0.02346
385.0,0.02359
385.5,0.02371
386.0,0.02383
386.5,0.02396
387.0,0.02408
387.5,0.0242
388.0,0.02433
388.5,0.02445
389.0,0.02458
389.5,0.0247
390.0,0.02483
390.5,0.02489
391.0,0.02496
391.5,0.02502
392.0,0.02509
392.5,0.02516
393.0,0.02522
393.5,0.02529
394.0,0.02536
394.5,0.02542
395.0,0.02549
395.5,0.02555
396.0,0.02562
396.5,0.02569
397.0,0.02576
397.5,0.02582
398.0,0.02589
398.5,0.02596
399.0,0.02603
399.5,0.02609
400.0,0.02616
401.0,0.02643
402.0,0.02669
403.0,0.02695
404.0,0.02721
405.0,0.02747
406.0,0.02773
407.0,0.02799
408.0,0.02825
409.0,0.02851
410.0,0.02877
411.0,0.02892
412.0,0.02906
413.0,0.0292
414.0,0.02935
415.0,0.0295
416.0,0.02965
417.0,0.02979
418.0,0.02994
419.0,0.03009
420.0,0.03023
421.0,0.03038
422.0,0.03053
423.0,0.03068
424.0,0.03083
425.0,0.03099
426.0,0.03114
427.0,0.03129
428.0,0.03144
429.0,0.0316
430.0,0.03175
431.0,0.0319
432.0,0.03207
433.0,0.03222
434.0,0.03237
435.0,0.03252
436.0,0.03269
437.0,0.03285
438.0,0.03302
439.0,0.03316
440.0,0.03333
441.0,0.03337
442.0,0.03341
443.0,0.03343
444.0,0.03347
445.0,0.03349
446.0,0.03354
447.0,0.03358
448.0,0.03361
449.0,0.03367
450.0,0.03371
451.0,0.03375
452.0,0.03379
453.0,0.03382
454.0,0.03387
455.0,0.0339
456.0,0.03395
457.0,0.03399
458.0,0.03402
459.0,0.03407
460.0,0.03411
461.0,0.03428
462.0,0.03445
463.0,0.0346
464.0,0.03477
465.0,0.03494
466.0,0.03511
467.0,0.03527
468.0,0.03544
469.0,0.03561
470.0,0.03576
471.0,0.03606
472.0,0.03634
473.0,0.03662
474.0,0.0369
475.0,0.03717
476.0,0.03744
477.0,0.03773
478.0,0.03805
479.0,0.03839
480.0,0.03873
481.0,0.03907
482.0,0.0394
483.0,0.03973
484.0,0.04003
485.0,0.04033
486.0,0.04063
487.0,0.04094
488.0,0.04124
489.0,0.04154
490.0,0.04186
491.0,0.04205
492.0,0.04223
493.0,0.04241
494.0,0.04258
495.0,0.04276
496.0,0.04293
497.0,0.04312
498.0,0.04331
499.0,0.0435
500.0,0.04368
501.0,0.04439
502.0,0.04507
503.0,0.04576
504.0,0.04634
505.0,0.04718
506.0,0.04788
507.0,0.04858
508.0,0.04932
509.0,0.05005
510.0,0.05078
511.0,0.05179
512.0,0.05279
513.0,0.05379
514.0,0.05479
515.0,0.05579
516.0,0.05678
517.0,0.05779
518.0,0.05878
519.0,0.05978
520.0,0.06077
521.0,0.06192
522.0,0.06306
523.0,0.06419
524.0,0.06532
525.0,0.06644
526.0,0.0676
527.0,0.06874
528.0,0.0699
529.0,0.07104
530.0,0.07219
531.0,0.07294
532.0,0.07368
533.0,0.07443
534.0,0.07519
535.0,0.07596
536.0,0.07672
537.0,0.07748
538.0,0.07822
539.0,0.07897
540.0,0.0797
541.0,0.08024
542.0,0.08084
543.0,0.08153
544.0,0.08209
545.0,0.08273
546.0,0.0833
547.0,0.08398
548.0,0.08464
549.0,0.08527
550.0,0.08589
551.0,0.08625
552.0,0.0866
553.0,0.08694
554.0,0.08729
555.0,0.08764
556.0,0.08798
557.0,0.08832
558.0,0.08865
559.0,0.08899
560.0,0.08932
561.0,0.0895
562.0,0.08969
563.0,0.08986
564.0,0.09003
565.0,0.09021
566.0,0.09038
567.0,0.09053
568.0,0.09059
569.0,0.09054
570.0,0.09078
571.0,0.09078
572.0,0.09053
573.0,0.09041
574.0,0.09027
575.0,0.09012
576.0,0.09002
577.0,0.08994
578.0,0.08992
579.0,0.08995
580.0,0.09006
581.0,0.09012
582.0,0.09013
583.0,0.09012
584.0,0.09008
585.0,0.09003
586.0,0.08994
587.0,0.08978
588.0,0.08941
589.0,0.08863
590.0,0.08854
591.0,0.08846
592.0,0.08771
593.0,0.0875
594.0,0.08695
595.0,0.08617
596.0,0.08624
597.0,0.08556
598.0,0.08523
599.0,0.08479
600.0,0.08437
601.0,0.08422
602.0,0.08401
603.0,0.08381
604.0,0.08359
605.0,0.08336
606.0,0.08312
607.0,0.08287
608.0,0.08263
609.0,0.08238
610.0,0.08214
611.0,0.08146
612.0,0.08078
613.0,0.0801
614.0,0.07941
615.0,0.07873
616.0,0.07804
617.0,0.07734
618.0,0.07665
619.0,0.07595
620.0,0.07525
621.0,0.07484
622.0,0.07444
623.0,0.07402
624.0,0.07359
625.0,0.07316
626.0,0.07271
627.0,0.07221
628.0,0.0705
629.0,0.07096
630.0,0.07048
631.0,0.07043
632.0,0.07006
633.0,0.06977
634.0,0.06945
635.0,0.06908
636.0,0.06871
637.0,0.06833
638.0,0.06797
639.0,0.06758
640.0,0.06719
641.0,0.06694
642.0,0.06669
643.0,0.06641
644.0,0.06616
645.0,0.06586
646.0,0.06548
647.0,0.06495
648.0,0.06475
649.0,0.06437
650.0,0.06443
651.0,0.06419
652.0,0.06367
653.0,0.06366
654.0,0.06338
655.0,0.06298
656.0,0.06278
657.0,0.06253
658.0,0.06233
659.0,0.06208
660.0,0.06183
661.0,0.06176
662.0,0.06166
663.0,0.06151
664.0,0.0614
665.0,0.06128
666.0,0.06115
667.0,0.06102
668.0,0.0609
669.0,0.06077
670.0,0.06064
671.0,0.06066
672.0,0.06068
673.0,0.0607
674.0,0.06072
675.0,0.06074
676.0,0.06075
677.0,0.06077
678.0,0.06079
679.0,0.06081
680.0,0.06082
681.0,0.06084
682.0,0.06085
683.0,0.06087
684.0,0.06088
685.0,0.0609
686.0,0.0609
687.0,0.0538
688.0,0.05698
689.0,0.0571
690.0,0.0581
691.0,0.0594
692.0,0.06042
693.0,0.06077
694.0,0.06132
695.0,0.06203
696.0,0.06237
697.0,0.06302
698.0,0.06331
699.0,0.06336
700.0,0.06366
701.0,0.06425
702.0,0.06512
703.0,0.06597
704.0,0.06688
705.0,0.06761
706.0,0.06842
707.0,0.06921
708.0,0.06995
709.0,0.07083
710.0,0.07151
711.0,0.07694
712.0,0.08239
713.0,0.0877
714.0,0.09313
715.0,0.09835
716.0,0.1037
717.0,0.107
718.0,0.1122
719.0,0.1172
720.0,0.122
721.0,0.1304
722.0,0.1385
723.0,0.1447
724.0,0.1504
725.0,0.1569
726.0,0.1637
727.0,0.1714
728.0,0.177
729.0,0.1851
730.0,0.1915
731.0,0.199
732.0,0.2082
733.0,0.2168
734.0,0.225
735.0,0.2326
736.0,0.2402
737.0,0.2481
738.0,0.2569
739.0,0.2648
740.0,0.2728
741.0,0.2816
742.0,0.2903
743.0,0.299
744.0,0.3077
745.0,0.3164
746.0,0.325
747.0,0.3337
748.0,0.3423
749.0,0.3509
750.0,0.3595
751.0,0.3638
752.0,0.368
753.0,0.3723
754.0,0.3765
755.0,0.3808
756.0,0.3851
757.0,0.3893
758.0,0.3936
759.0,0.3968
760.0,0.3117
761.0,0.3149
762.0,0.3421
763.0,0.3225
764.0,0.3319
765.0,0.3527
766.0,0.3848
767.0,0.4136
768.0,0.4308
769.0,0.4373
770.0,0.4438
771.0,0.4473
772.0,0.4503
773.0,0.453
774.0,0.4557
775.0,0.4584
776.0,0.4611
777.0,0.4637
778.0,0.4664
779.0,0.469
780.0,0.4717
781.0,0.4733
782.0,0.4748
783.0,0.4764
784.0,0.478
785.0,0.4795
786.0,0.481
787.0,0.4818
788.0,0.4831
789.0,0.4847
790.0,0.4854
791.0,0.4871
792.0,0.4881
793.0,0.4889
794.0,0.4905
795.0,0.4911
796.0,0.4905
797.0,0.4911
798.0,0.4934
799.0,0.494
800.0,0.4945
801.0,0.4942
802.0,0.4942
803.0,0.494
804.0,0.4943
805.0,0.4948
806.0,0.4956
807.0,0.4956
808.0,0.4957
809.0,0.4952
810.0,0.4951
811.0,0.4942
812.0,0.4924
813.0,0.4921
814.0,0.4888
815.0,0.489
816.0,0.4877
817.0,0.4871
818.0,0.486
819.0,0.488
820.0,0.4872
821.0,0.4899
822.0,0.4886
823.0,0.4782
824.0,0.4857
825.0,0.4873
826.0,0.4852
827.0,0.4857
828.0,0.4807
829.0,0.4835
830.0,0.4828
831.0,0.4819
832.0,0.4805
833.0,0.4812
834.0,0.48
835.0,0.4812
836.0,0.4789
837.0,0.4797
838.0,0.4785
839.0,0.4782
840.0,0.4777
841.0,0.4774
842.0,0.4779
843.0,0.4785
844.0,0.4784
845.0,0.4787
846.0,0.4788
847.0,0.479
848.0,0.4789
849.0,0.479
850.0,0.479
851.0,0.4795
852.0,0.4803
853.0,0.4811
854.0,0.4816
855.0,0.4825
856.0,0.4831
857.0,0.4838
858.0,0.4844
859.0,0.4852
860.0,0.4859
861.0,0.4867
862.0,0.4875
863.0,0.4883
864.0,0.4891
865.0,0.4899
866.0,0.4907
867.0,0.4915
868.0,0.4924
869.0,0.4932
870.0,0.494
871.0,0.4946
872.0,0.4953
873.0,0.496
874.0,0.4966
875.0,0.4973
876.0,0.4979
877.0,0.4986
878.0,0.4992
879.0,0.4999
880.0,0.5005
881.0,0.5005
882.0,0.5005
883.0,0.5007
884.0,0.5007
885.0,0.5007
886.0,0.5005
887.0,0.5007
888.0,0.5007
889.0,0.5009
890.0,0.5007
891.0,0.5007
892.0,0.5002
893.0,0.4998
894.0,0.4986
895.0,0.4971
896.0,0.4964
897.0,0.4939
898.0,0.4946
899.0,0.4906
900.0,0.4956
901.0,0.4899
902.0,0.4921
903.0,0.4903
904.0,0.4942
905.0,0.493
906.0,0.4916
907.0,0.486
908.0,0.4869
909.0,0.4869
910.0,0.483
911.0,0.4855
912.0,0.484
913.0,0.4803
914.0,0.4807
915.0,0.479
916.0,0.4779
917.0,0.4797
918.0,0.4756
919.0,0.4786
920.0,0.4799
921.0,0.4782
922.0,0.4755
923.0,0.4757
924.0,0.4721
925.0,0.4707
926.0,0.4691
927.0,0.469
928.0,0.4596
929.0,0.4552
930.0,0.4404
931.0,0.4351
932.0,0.4105
933.0,0.3954
934.0,0.3573
935.0,0.3983
936.0,0.374
937.0,0.3744
938.0,0.3776
939.0,0.422
940.0,0.429
941.0,0.4131
942.0,0.4155
943.0,0.3978
944.0,0.4113
945.0,0.408
946.0,0.3716
947.0,0.4001
948.0,0.3972
949.0,0.4072
950.0,0.3529
951.0,0.4016
952.0,0.3819
953.0,0.3906
954.0,0.3962
955.0,0.3906
956.0,0.4023
957.0,0.3746
958.0,0.3998
959.0,0.3899
960.0,0.3891
961.0,0.3936
962.0,0.3931
963.0,0.3958
964.0,0.3941
965.0,0.393
966.0,0.3932
967.0,0.3917
968.0,0.3975
969.0,0.3956
970.0,0.3946
971.0,0.3973
972.0,0.3979
973.0,0.3967
974.0,0.398
975.0,0.3995
976.0,0.3988
977.0,0.4033
978.0,0.4031
979.0,0.4047
980.0,0.4057
981.0,0.4079
982.0,0.4081
983.0,0.4084
984.0,0.4105
985.0,0.4099
986.0,0.4122
987.0,0.4125
988.0,0.4133
989.0,0.4144
990.0,0.4144
991.0,0.415
992.0,0.4151
993.0,0.4148
994.0,0.4151
995.0,0.4152
996.0,0.4152
997.0,0.4152
998.0,0.4152
999.0,0.4153
1000.0,0.4152
1001.0,0.415
1002.0,0.4143
1003.0,0.4144
1004.0,0.414
1005.0,0.4139
1006.0,0.4135
1007.0,0.4133
1008.0,0.4129
1009.0,0.4125
1010.0,0.4122
1011.0,0.4119
1012.0,0.4115
1013.0,0.4111
1014.0,0.4106
1015.0,0.4102
1016.0,0.4097
1017.0,0.4093
1018.0,0.4089
1019.0,0.4083
1020.0,0.408
1021.0,0.4074
1022.0,0.4067
1023.0,0.4061
1024.0,0.4054
1025.0,0.405
1026.0,0.4043
1027.0,0.4038
1028.0,0.4031
1029.0,0.4025
1030.0,0.402
1031.0,0.4014
1032.0,0.4008
1033.0,0.4002
1034.0,0.3996
1035.0,0.399
1036.0,0.3983
1037.0,0.3978
1038.0,0.3971
1039.0,0.3965
1040.0,0.3959
1041.0,0.3952
1042.0,0.3944
1043.0,0.3936
1044.0,0.3929
1045.0,0.3921
1046.0,0.3913
1047.0,0.3906
1048.0,0.3898
1049.0,0.389
1050.0,0.3883
1051.0,0.3873
1052.0,0.3864
1053.0,0.3855
1054.0,0.3845
1055.0,0.3836
1056.0,0.3827
1057.0,0.3817
1058.0,0.3808
1059.0,0.3798
1060.0,0.3789
1061.0,0.3777
1062.0,0.3764
1063.0,0.3752
1064.0,0.374
1065.0,0.3727
1066.0,0.3715
1067.0,0.3703
1068.0,0.369
1069.0,0.3678
1070.0,0.3666
1071.0,0.3656
1072.0,0.3645
1073.0,0.3634
1074.0,0.3625
1075.0,0.3612
1076.0,0.3604
1077.0,0.3592
1078.0,0.358
1079.0,0.3572
1080.0,0.3559
1081.0,0.3546
1082.0,0.3536
1083.0,0.3524
1084.0,0.3508
1085.0,0.3498
1086.0,0.3482
1087.0,0.3473
1088.0,0.3463
1089.0,0.3447
1090.0,0.3434
1091.0,0.342
1092.0,0.3404
1093.0,0.3379
1094.0,0.3369
1095.0,0.3344
1096.0,0.3325
1097.0,0.3319
1098.0,0.3289
1099.0,0.3273
1100.0,0.3252
1101.0,0.3235
1102.0,0.3211
1103.0,0.3187
1104.0,0.3169
1105.0,0.3154
1106.0,0.3106
1107.0,0.3113
1108.0,0.3078
1109.0,0.3056
1110.0,0.3048
1111.0,0.2979
1112.0,0.2992
1113.0,0.2904
1114.0,0.2878
1115.0,0.2836
1116.0,0.2698
1117.0,0.2361
1118.0,0.2667
1119.0,0.2414
1120.0,0.2342
1121.0,0.2367
1122.0,0.2131
1123.0,0.2262
1124.0,0.224
1125.0,0.2289
1126.0,0.2018
1127.0,0.2239
1128.0,0.2029
1129.0,0.2011
1130.0,0.2029
1131.0,0.2342
1132.0,0.2267
1133.0,0.2037
1134.0,0.184
1135.0,0.1828
1136.0,0.1884
1137.0,0.2156
1138.0,0.2083
1139.0,0.2199
1140.0,0.2123
1141.0,0.2026
1142.0,0.205
1143.0,0.2103
1144.0,0.1913
1145.0,0.1774
1146.0,0.1763
1147.0,0.1617
1148.0,0.2012
1149.0,0.195
1150.0,0.191
1151.0,0.1897
1152.0,0.1952
1153.0,0.1984
1154.0,0.1789
1155.0,0.1997
1156.0,0.1976
1157.0,0.2009
1158.0,0.2004
1159.0,0.1999
1160.0,0.1997
1161.0,0.2008
1162.0,0.2002
1163.0,0.2012
1164.0,0.2003
1165.0,0.1993
1166.0,0.1994
1167.0,0.1991
1168.0,0.1987
1169.0,0.1983
1170.0,0.1982
1171.0,0.198
1172.0,0.198
1173.0,0.1977
1174.0,0.1966
1175.0,0.1976
1176.0,0.1977
1177.0,0.1974
1178.0,0.1967
1179.0,0.1972
1180.0,0.1968
1181.0,0.1968
1182.0,0.1958
1183.0,0.1969
1184.0,0.1967
1185.0,0.1965
1186.0,0.197
1187.0,0.1968
1188.0,0.1955
1189.0,0.1968
1190.0,0.1971
1191.0,0.1967
1192.0,0.1971
1193.0,0.197
1194.0,0.1971
1195.0,0.1969
1196.0,0.1967
1197.0,0.1971
1198.0,0.1971
1199.0,0.1965
1200.0,0.1971
1201.0,0.1969
1202.0,0.1971
1203.0,0.1969
1204.0,0.1968
1205.0,0.1972
1206.0,0.1973
1207.0,0.197
1208.0,0.1972
1209.0,0.1971
1210.0,0.1972
1211.0,0.1972
1212.0,0.1968
1213.0,0.1972
1214.0,0.197
1215.0,0.197
1216.0,0.1973
1217.0,0.1972
1218.0,0.1973
1219.0,0.1973
1220.0,0.1973
1221.0,0.1974
1222.0,0.1973
1223.0,0.1973
1224.0,0.1972
1225.0,0.1974
1226.0,0.1974
1227.0,0.1972
1228.0,0.1974
1229.0,0.1974
1230.0,0.1974
1231.0,0.1975
1232.0,0.1975
1233.0,0.1974
1234.0,0.1975
1235.0,0.1975
1236.0,0.1975
1237.0,0.1975
1238.0,0.1975
1239.0,0.1975
1240.0,0.1976
1241.0,0.1975
1242.0,0.1976
1243.0,0.1976
1244.0,0.1975
1245.0,0.1976
1246.0,0.1976
1247.0,0.1976
1248.0,0.1975
1249.0,0.1976
1250.0,0.1976
1251.0,0.1975
1252.0,0.1976
1253.0,0.1975
1254.0,0.1975
1255.0,0.1976
1256.0,0.1974
1257.0,0.1974
1258.0,0.1975
1259.0,0.1973
1260.0,0.1974
1261.0,0.1971
1262.0,0.1968
1263.0,0.1968
1264.0,0.1962
1265.0,0.1969
1266.0,0.1965
1267.0,0.1968
1268.0,0.1964
1269.0,0.1826
1270.0,0.1967
1271.0,0.1972
1272.0,0.1972
1273.0,0.1971
1274.0,0.1972
1275.0,0.1973
1276.0,0.1973
1277.0,0.1974
1278.0,0.1975
1279.0,0.1975
1280.0,0.1975
1281.0,0.1976
1282.0,0.1976
1283.0,0.1976
1284.0,0.1976
1285.0,0.1976
1286.0,0.1977
1287.0,0.1976
1288.0,0.1976
1289.0,0.1975
1290.0,0.1976
1291.0,0.1977
1292.0,0.1975
1293.0,0.1976
1294.0,0.1976
1295.0,0.1975
1296.0,0.1974
1297.0,0.1973
1298.0,0.1975
1299.0,0.1977
1300.0,0.1973
1301.0,0.1974
1302.0,0.1976
1303.0,0.1974
1304.0,0.1968
1305.0,0.1975
1306.0,0.1975
1307.0,0.197
1308.0,0.1974
1309.0,0.1974
1310.0,0.1969
1311.0,0.1973
1312.0,0.1973
1313.0,0.1971
1314.0,0.1968
1315.0,0.1967
1316.0,0.1973
1317.0,0.1972
1318.0,0.1974
1319.0,0.1965
1320.0,0.1966
1321.0,0.197
1322.0,0.1968
1323.0,0.1954
1324.0,0.1966
1325.0,0.1971
1326.0,0.1968
1327.0,0.1966
1328.0,0.196
1329.0,0.1931
1330.0,0.1951
1331.0,0.1891
1332.0,0.1899
1333.0,0.1916
1334.0,0.195
1335.0,0.1949
1336.0,0.1929
1337.0,0.1933
1338.0,0.1929
1339.0,0.1929
1340.0,0.194
1341.0,0.1896
1342.0,0.1909
1343.0,0.1773
1344.0,0.1787
1345.0,0.1708
1346.0,0.1514
1347.0,0.1497
1348.0,0.1482
1349.0,0.1482
1350.0,0.1482
1351.0,0.1482
1352.0,0.1482
1353.0,0.1482
1354.0,0.1482
1355.0,0.1482
1356.0,0.1482
1357.0,0.1482
1358.0,0.1482
1359.0,0.1482
1360.0,0.1482
1361.0,0.1482
1362.0,0.1482
1363.0,0.1482
1364.0,0.1482
1365.0,0.1482
1366.0,0.1482
1367.0,0.1482
1368.0,0.1482
1369.0,0.1482
1370.0,0.1482
1371.0,0.1482
1372.0,0.1482
1373.0,0.1482
1374.0,0.1482
1375.0,0.1482
1376.0,0.1482
1377.0,0.1482
1378.0,0.1482
1379.0,0.1482
1380.0,0.1482
1381.0,0.1482
1382.0,0.1482
1383.0,0.1482
1384.0,0.1482
1385.0,0.1482
1386.0,0.1482
1387.0,0.1482
1388.0,0.1482
1389.0,0.1482
1390.0,0.1482
1391.0,0.1482
1392.0,0.1482
1393.0,0.1482
1394.0,0.1482
1395.0,0.1482
1396.0,0.1482
1397.0,0.1482
1398.0,0.1482
1399.0,0.1482
1400.0,0.1482
1401.0,0.1482
1402.0,0.1482
1403.0,0.1482
1404.0,0.1482
1405.0,0.1482
1406.0,0.1482
1407.0,0.1482
1408.0,0.1482
1409.0,0.1482
1410.0,0.1482
1411.0,0.1482
1412.0,0.1482
1413.0,0.1482
1414.0,0.1482
1415.0,0.1482
1416.0,0.1491
1417.0,0.1485
1418.0,0.1482
1419.0,0.1482
1420.0,0.1482
1421.0,0.1485
1422.0,0.1495
1423.0,0.149
1424.0,0.1541
1425.0,0.1494
1426.0,0.1556
1427.0,0.1547
1428.0,0.1482
1429.0,0.1504
1430.0,0.1642
1431.0,0.1658
1432.0,0.1482
1433.0,0.1588
1434.0,0.1542
1435.0,0.1491
1436.0,0.1547
1437.0,0.1531
1438.0,0.1519
1439.0,0.1559
1440.0,0.162
1441.0,0.1515
1442.0,0.1488
1443.0,0.152
1444.0,0.1648
1445.0,0.1539
1446.0,0.1488
1447.0,0.1537
1448.0,0.1804
1449.0,0.1793
1450.0,0.1589
1451.0,0.1552
1452.0,0.1631
1453.0,0.1675
1454.0,0.1893
1455.0,0.1747
1456.0,0.1748
1457.0,0.1843
1458.0,0.1921
1459.0,0.1927
1460.0,0.1873
1461.0,0.1742
1462.0,0.1896
1463.0,0.1761
1464.0,0.1925
1465.0,0.1907
1466.0,0.1649
1467.0,0.1586
1468.0,0.1716
1469.0,0.1822
1470.0,0.1505
1471.0,0.1614
1472.0,0.1503
1473.0,0.1648
1474.0,0.1876
1475.0,0.1941
1476.0,0.1786
1477.0,0.1704
1478.0,0.1856
1479.0,0.1908
1480.0,0.171
1481.0,0.1872
1482.0,0.1836
1483.0,0.1931
1484.0,0.1946
1485.0,0.194
1486.0,0.19
1487.0,0.1765
1488.0,0.192
1489.0,0.1961
1490.0,0.1967
1491.0,0.1968
1492.0,0.1948
1493.0,0.1966
1494.0,0.1973
1495.0,0.1969
1496.0,0.1966
1497.0,0.1977
1498.0,0.1973
1499.0,0.1975
1500.0,0.1978
1501.0,0.1978
1502.0,0.1978
1503.0,0.1974
1504.0,0.1968
1505.0,0.1975
1506.0,0.1979
1507.0,0.1979
1508.0,0.1979
1509.0,0.1975
1510.0,0.198
1511.0,0.1979
1512.0,0.198
1513.0,0.1978
1514.0,0.1977
1515.0,0.198
1516.0,0.198
1517.0,0.1979
1518.0,0.1979
1519.0,0.1978
1520.0,0.1979
1521.0,0.1981
1522.0,0.198
1523.0,0.1981
1524.0,0.1981
1525.0,0.198
1526.0,0.198
1527.0,0.198
1528.0,0.1981
1529.0,0.1981
1530.0,0.198
1531.0,0.1981
1532.0,0.1981
1533.0,0.1981
1534.0,0.1981
1535.0,0.1981
1536.0,0.1981
1537.0,0.1981
1538.0,0.1981
1539.0,0.1981
1540.0,0.1981
1541.0,0.1981
1542.0,0.1981
1543.0,0.1981
1544.0,0.1981
1545.0,0.1981
1546.0,0.1981
1547.0,0.1981
1548.0,0.1981
1549.0,0.1981
1550.0,0.1981
1551.0,0.1981
1552.0,0.1981
1553.0,0.1981
1554.0,0.1981
1555.0,0.1982
1556.0,0.1982
1557.0,0.1982
1558.0,0.1982
1559.0,0.1982
1560.0,0.1982
1561.0,0.1982
1562.0,0.1982
1563.0,0.1982
1564.0,0.1982
1565.0,0.1982
1566.0,0.1982
1567.0,0.1982
1568.0,0.1982
1569.0,0.1982
1570.0,0.1982
1571.0,0.1982
1572.0,0.1982
1573.0,0.1982
1574.0,0.1982
1575.0,0.1982
1576.0,0.1982
1577.0,0.1982
1578.0,0.1981
1579.0,0.1981
1580.0,0.1981
1581.0,0.1981
1582.0,0.1981
1583.0,0.1981
1584.0,0.1982
1585.0,0.1982
1586.0,0.1982
1587.0,0.1982
1588.0,0.1982
1589.0,0.1982
1590.0,0.1982
1591.0,0.1982
1592.0,0.1982
1593.0,0.1982
1594.0,0.1982
1595.0,0.1982
1596.0,0.1982
1597.0,0.1982
1598.0,0.1982
1599.0,0.1982
1600.0,0.1982
1601.0,0.1982
1602.0,0.1982
1603.0,0.1982
1604.0,0.1982
1605.0,0.1982
1606.0,0.1982
1607.0,0.1982
1608.0,0.1982
1609.0,0.1982
1610.0,0.1982
1611.0,0.1982
1612.0,0.1982
1613.0,0.1982
1614.0,0.1982
1615.0,0.1982
1616.0,0.1982
1617.0,0.1982
1618.0,0.1982
1619.0,0.1982
1620.0,0.1982
1621.0,0.1982
1622.0,0.1982
1623.0,0.1982
1624.0,0.1982
1625.0,0.1982
1626.0,0.1982
1627.0,0.1982
1628.0,0.1982
1629.0,0.1982
1630.0,0.1982
1631.0,0.1982
1632.0,0.1982
1633.0,0.1982
1634.0,0.1982
1635.0,0.1982
1636.0,0.1982
1637.0,0.1982
1638.0,0.1982
1639.0,0.1982
1640.0,0.1982
1641.0,0.1982
1642.0,0.1982
1643.0,0.1981
1644.0,0.1982
1645.0,0.1982
1646.0,0.1981
1647.0,0.1982
1648.0,0.1981
1649.0,0.1982
1650.0,0.1982
1651.0,0.1981
1652.0,0.1982
1653.0,0.1982
1654.0,0.1981
1655.0,0.1982
1656.0,0.1982
1657.0,0.1982
1658.0,0.1982
1659.0,0.1982
1660.0,0.1982
1661.0,0.1982
1662.0,0.1982
1663.0,0.1982
1664.0,0.1982
1665.0,0.1982
1666.0,0.1976
1667.0,0.1982
1668.0,0.1982
1669.0,0.1982
1670.0,0.1982
1671.0,0.1982
1672.0,0.1982
1673.0,0.1982
1674.0,0.1982
1675.0,0.1982
1676.0,0.1982
1677.0,0.1982
1678.0,0.1982
1679.0,0.1983
1680.0,0.1982
1681.0,0.1982
1682.0,0.1983
1683.0,0.1983
1684.0,0.1982
1685.0,0.1983
1686.0,0.1983
1687.0,0.1982
1688.0,0.1983
1689.0,0.1983
1690.0,0.1982
1691.0,0.1982
1692.0,0.1982
1693.0,0.1983
1694.0,0.1982
1695.0,0.1983
1696.0,0.1983
1697.0,0.1981
1698.0,0.1983
1699.0,0.1983
1700.0,0.1982
1702.0,0.1983
1705.0,0.1982
1710.0,0.1982
1715.0,0.1982
1720.0,0.1982
1725.0,0.1982
1730.0,0.1982
1735.0,0.1982
1740.0,0.1982
1745.0,0.1982
1750.0,0.1982
1755.0,0.1982
1760.0,0.1982
1765.0,0.1981
1770.0,0.1981
1775.0,0.1979
1780.0,0.1977
1785.0,0.1971
1790.0,0.1973
1795.0,0.179
1800.0,0.1878
1805.0,0.1487
1810.0,0.1597
1815.0,0.1482
1820.0,0.1482
1825.0,0.1482
1830.0,0.1482
1835.0,0.1482
1840.0,0.1482
1845.0,0.1482
1850.0,0.1482
1855.0,0.1482
1860.0,0.1482
1865.0,0.1482
1870.0,0.1482
1875.0,0.1482
1880.0,0.1482
1885.0,0.1482
1890.0,0.1482
1895.0,0.1482
1900.0,0.1482
1905.0,0.1482
1910.0,0.1482
1915.0,0.1482
1920.0,0.1482
1925.0,0.1482
1930.0,0.1482
1935.0,0.1483
1940.0,0.153
1945.0,0.154
1950.0,0.1873
1955.0,0.1648
1960.0,0.1929
1965.0,0.1975
1970.0,0.198
1975.0,0.1981
1980.0,0.1981
1985.0,0.1982
1990.0,0.1982
1995.0,0.1983
2000.0,0.1983
2005.0,0.1982
2010.0,0.1984
2015.0,0.1983
2020.0,0.1983
2025.0,0.1984
2030.0,0.1984
2035.0,0.1984
2040.0,0.1984
2045.0,0.1984
2050.0,0.1984
2055.0,0.1984
2060.0,0.1984
2065.0,0.1984
2070.0,0.1984
2075.0,0.1984
2080.0,0.1984
2085.0,0.1984
2090.0,0.1984
2095.0,0.1984
2100.0,0.1984
2105.0,0.1984
2110.0,0.1984
2115.0,0.1984
2120.0,0.1984
2125.0,0.1984
2130.0,0.1984
2135.0,0.1984
2140.0,0.1984
2145.0,0.1984
2150.0,0.1984
2155.0,0.1984
2160.0,0.1984
2165.0,0.1984
2170.0,0.1984
2175.0,0.1984
2180.0,0.1984
2185.0,0.1984
2190.0,0.1984
2195.0,0.1984
2200.0,0.1984
2205.0,0.1984
2210.0,0.1984
2215.0,0.1984
2220.0,0.1984
2225.0,0.1984
2230.0,0.1984
2235.0,0.1984
2240.0,0.1984
2245.0,0.1984
2250.0,0.1984
2255.0,0.1984
2260.0,0.1984
2265.0,0.1984
2270.0,0.1984
2275.0,0.1984
2280.0,0.1984
2285.0,0.1984
2290.0,0.1984
2295.0,0.1984
2300.0,0.1983
2305.0,0.1984
2310.0,0.1984
2315.0,0.1984
2320.0,0.1983
2325.0,0.1984
2330.0,0.1984
2335.0,0.1984
2340.0,0.1982
2345.0,0.1983
2350.0,0.1982
2355.0,0.1983
2360.0,0.1983
2365.0,0.1984
2370.0,0.1974
2375.0,0.1983
2380.0,0.1983
2385.0,0.1981
2390.0,0.1982
2395.0,0.1983
2400.0,0.1983
2405.0,0.1983
2410.0,0.1983
2415.0,0.1978
2420.0,0.1979
2425.0,0.1981
2430.0,0.1983
2435.0,0.1964
2440.0,0.1983
2445.0,0.1974
2450.0,0.1955
2455.0,0.198
2460.0,0.1979
2465.0,0.1969
2470.0,0.1907
2475.0,0.1923
2480.0,0.1883
2485.0,0.1517
2490.0,0.1484
2495.0,0.1485
2500.0,0.1604
2505.0,0.1639
2510.0,0.1696
2515.0,0.1519
2520.0,0.1482
2525.0,0.1482
2530.0,0.1482
2535.0,0.1482
2540.0,0.1482
2545.0,0.1482
2550.0,0.1482
2555.0,0.1482
2560.0,0.1482
2565.0,0.1482
2570.0,0.1482
2575.0,0.2824
2580.0,0.1482
2585.0,0.2824
2590.0,0.2824
2595.0,0.2824
2600.0,0.2824
2605.0,0.2824
2610.0,0.2824
2615.0,0.2824
2620.0,0.2824
2625.0,0.2824
2630.0,0.2824
2635.0,0.1482
2640.0,0.1482
2645.0,0.1482
2650.0,0.1482
2655.0,0.2824
2660.0,0.2824
2665.0,0.2824
2670.0,0.2824
2675.0,0.2824
2680.0,0.2824
2685.0,0.2824
2690.0,0.2824
2695.0,0.2824
2700.0,0.1482
2705.0,0.1482
2710.0,0.2824
2715.0,0.1482
2720.0,0.2824
2725.0,0.1482
2730.0,0.1482
2735.0,0.1482
2740.0,0.2824
2745.0,0.1482
2750.0,0.1482
2755.0,0.1482
2760.0,0.1482
2765.0,0.1482
2770.0,0.1482
2775.0,0.1482
2780.0,0.1482
2785.0,0.1482
2790.0,0.1482
2795.0,0.1482
2800.0,0.1985
2805.0,0.1482
2810.0,0.1482
2815.0,0.1482
2820.0,0.1482
2825.0,0.1482
2830.0,0.1482
2835.0,0.1482
2840.0,0.1482
2845.0,0.1482
2850.0,0.1482
2855.0,0.1482
2860.0,0.1482
2865.0,0.1482
2870.0,0.1482
2875.0,0.1482
2880.0,0.1484
2885.0,0.1482
2890.0,0.1488
2895.0,0.153
2900.0,0.1483
2905.0,0.1483
2910.0,0.1552
2915.0,0.1516
2920.0,0.1538
2925.0,0.1703
2930.0,0.1875
2935.0,0.1856
2940.0,0.1752
2945.0,0.1488
2950.0,0.1781
2955.0,0.1804
2960.0,0.1931
2965.0,0.196
2970.0,0.149
2975.0,0.1808
2980.0,0.1807
2985.0,0.1968
2990.0,0.1981
2995.0,0.1899
3000.0,0.1966
3005.0,0.1912
3010.0,0.1971
3015.0,0.1954
3020.0,0.1482
3025.0,0.1963
3030.0,0.196
3035.0,0.1731
3040.0,0.1895
3045.0,0.1866
3050.0,0.1675
3055.0,0.1533
3060.0,0.1962
3065.0,0.1891
3070.0,0.1675
3075.0,0.1958
3080.0,0.1893
3085.0,0.1602
3090.0,0.175
3095.0,0.1524
3100.0,0.1936
3105.0,0.1849
3110.0,0.1484
3115.0,0.16
3120.0,0.1977
3125.0,0.1975
3130.0,0.1975
3135.0,0.198
3140.0,0.194
3145.0,0.1945
3150.0,0.1976
3155.0,0.1977
3160.0,0.1981
3165.0,0.1984
3170.0,0.1984
3175.0,0.1979
3180.0,0.1983
3185.0,0.1956
3190.0,0.1969
3195.0,0.1615
3200.0,0.1482
3205.0,0.1482
3210.0,0.1483
3215.0,0.1517
3220.0,0.1496
3225.0,0.1556
3230.0,0.15
3235.0,0.1965
3240.0,0.1707
3245.0,0.1886
3250.0,0.1827
3255.0,0.1977
3260.0,0.1708
3265.0,0.171
3270.0,0.1501
3275.0,0.1958
3280.0,0.1869
3285.0,0.1983
3290.0,0.1975
3295.0,0.1916
3300.0,0.1788
3305.0,0.1921
3310.0,0.1859
3315.0,0.1482
3320.0,0.1482
3325.0,0.1712
3330.0,0.198
3335.0,0.198
3340.0,0.1981
3345.0,0.1937
3350.0,0.1983
3355.0,0.1956
3360.0,0.1977
3365.0,0.1983
3370.0,0.1913
3375.0,0.1984
3380.0,0.1957
3385.0,0.1984
3390.0,0.1983
3395.0,0.1984
3400.0,0.1985
3405.0,0.1949
3410.0,0.1984
3415.0,0.1978
3420.0,0.1985
3425.0,0.1984
3430.0,0.1982
3435.0,0.1985
3440.0,0.1981
3445.0,0.1985
3450.0,0.1985
3455.0,0.1984
3460.0,0.1985
3465.0,0.1984
3470.0,0.1985
3475.0,0.1985
3480.0,0.1985
3485.0,0.1985
3490.0,0.1985
3495.0,0.1985
3500.0,0.1985
3505.0,0.1985
3510.0,0.1985
3515.0,0.1985
3520.0,0.1985
3525.0,0.1985
3530.0,0.1985
3535.0,0.1985
3540.0,0.1985
3545.0,0.1985
3550.0,0.1985
3555.0,0.1985
3560.0,0.1985
3565.0,0.1985
3570.0,0.1985
3575.0,0.1985
3580.0,0.1985
3585.0,0.1985
3590.0,0.1985
3595.0,0.1985
3600.0,0.1985
3605.0,0.1985
3610.0,0.1985
3615.0,0.1985
3620.0,0.1985
3625.0,0.1985
3630.0,0.1985
3635.0,0.1985
3640.0,0.1985
3645.0,0.1985
3650.0,0.1985
3655.0,0.1985
3660.0,0.1985
3665.0,0.1985
3670.0,0.1985
3675.0,0.1984
3680.0,0.1985
3685.0,0.1985
3690.0,0.1985
3695.0,0.1985
3700.0,0.1985
3705.0,0.1985
3710.0,0.1985
3715.0,0.1985
3720.0,0.1985
3725.0,0.1985
3730.0,0.1985
3735.0,0.1985
3740.0,0.1985
3745.0,0.1985
3750.0,0.1985
3755.0,0.1985
3760.0,0.1985
3765.0,0.1985
3770.0,0.1985
3775.0,0.1985
3780.0,0.1985
3785.0,0.1985
3790.0,0.1985
3795.0,0.1985
3800.0,0.1985
3805.0,0.1985
3810.0,0.1985
3815.0,0.1985
3820.0,0.1985
3825.0,0.1985
3830.0,0.1985
3835.0,0.1985
3840.0,0.1985
3845.0,0.1985
3850.0,0.1985
3855.0,0.1985
3860.0,0.1985
3865.0,0.1985
3870.0,0.1985
3875.0,0.1985
3880.0,0.1985
3885.0,0.1985
3890.0,0.1985
3895.0,0.1985
3900.0,0.1985
3905.0,0.1985
3910.0,0.1985
3915.0,0.1985
3920.0,0.1985
3925.0,0.1985
3930.0,0.1985
3935.0,0.1985
3940.0,0.1985
3945.0,0.1985
3950.0,0.1985
3955.0,0.1985
3960.0,0.1985
3965.0,0.1985
3970.0,0.1985
3975.0,0.1985
3980.0,0.1985
3985.0,0.1985
3990.0,0.1985
3995.0,0.1985
4000.0,0.1985
