interpolation:linear
wavelength,value
280.0,0.03618
280.5,0.03618
281.0,0.03618
281.5,0.03618
282.0,0.03618
282.5,0.03618
283.0,0.03618
283.5,0.03618
284.0,0.03618
284.5,0.03618
285.0,0.03618
285.5,0.03618
286.0,0.03618
286.5,0.03618
287.0,0.03618
287.5,0.03618
288.0,0.03618
288.5,0.03618
289.0,0.03618
289.5,0.03618
290.0,0.03618
290.5,0.03618
291.0,0.03618
291.5,0.03618
292.0,0.03618
292.5,0.03618
293.0,0.03618
293.5,0.03618
294.0,0.03618
294.5,0.03618
295.0,0.03618
295.5,0.03618
296.0,0.03618
296.5,0.03618
297.0,0.03618
297.5,0.03618
298.0,0.03618
298.5,0.03618
299.0,0.03618
299.5,0.03618
300.0,0.03618
300.5,0.036
301.0,0.03583
301.5,0.03565
302.0,0.03548
302.5,0.0353
303.0,0.03513
303.5,0.03495
304.0,0.03478
304.5,0.0346
305.0,0.03443
305.5,0.03425
306.0,0.03408
306.5,0.0339
307.0,0.03373
307.5,0.03355
308.0,0.03338
308.5,0.0332
309.0,0.03303
309.5,0.03286
310.0,0.03268
310.5,0.03251
311.0,0.03233
311.5,0.03216
312.0,0.03199
312.5,0.03181
313.0,0.03164
313.5,0.03146
314.0,0.03129
314.5,0.03112
315.0,0.03095
315.5,0.03077
316.0,0.0306
316.5,0.03043
317.0,0.03025
317.5,0.03008
318.0,0.02991
318.5,0.02974
319.0,0.02956
319.5,0.02939
320.0,0.02921
320.5,0.0291
321.0,0.02899
321.5,0.02887
322.0,0.02876
322.5,0.02864
323.0,0.02853
323.5,0.02841
324.0,0.02829
324.5,0.02818
325.0,0.02807
325.5,0.02795
326.0,0.02784
326.5,0.02772
327.0,0.02761
327.5,0.02749
328.0,0.02738
328.5,0.02726
329.0,0.02715
329.5,0.02703
330.0,0.02692
330.5,0.02681
331.0,0.02669
331.5,0.02658
332.0,0.02646
332.5,0.02635
333.0,0.02623
333.5,0.02612
334.0,0.02601
334.5,0.02589
335.0,0.02577
335.5,0.02566
336.0,0.02554
336.5,0.02543
337.0,0.02532
337.5,0.02521
338.0,0.02509
338.5,0.02497
339.0,0.02486
339.5,0.02475
340.0,0.02464
340.5,0.02458
341.0,0.02452
341.5,0.02447
342.0,0.02442
342.5,0.02436
343.0,0.02431
343.5,0.02425
344.0,0.0242
344.5,0.02414
345.0,0.02409
345.5,0.02404
346.0,0.02398
346.5,0.02393
347.0,0.02387
347.5,0.02382
348.0,0.02377
348.5,0.02371
349.0,0.02366
349.5,0.02361
350.0,0.02355
350.5,0.0235
351.0,0.02345
351.5,0.02339
352.0,0.02334
352.5,0.02329
353.0,0.02323
353.5,0.02318
354.0,0.02313
354.5,0.02307
355.0,0.02302
355.5,0.02297
356.0,0.02291
356.5,0.02286
357.0,0.02281
357.5,0.02275
358.0,0.0227
358.5,0.02265
359.0,0.02259
359.5,0.02254
360.0,0.02249
360.5,0.02249
361.0,0.0225
361.5,0.02251
362.0,0.02252
362.5,0.02253
363.0,0.02254
363.5,0.02254
364.0,0.02255
364.5,0.02256
365.0,0.02257
365.5,0.02257
366.0,0.02258
366.5,0.02259
367.0,0.0226
367.5,0.02261
368.0,0.02262
368.5,0.02262
369.0,0.02263
369.5,0.02264
370.0,0.02265
370.5,0.02266
371.0,0.02267
371.5,0.02268
372.0,0.02268
372.5,0.02269
373.0,0.0227
373.5,0.02271
374.0,0.02272
374.5,0.02273
375.0,0.02274
375.5,0.02275
376.0,0.02276
376.5,0.02277
377.0,0.02278
377.5,0.02279
378.0,0.0228
378.5,0.0228
379.0,0.02281
379.5,0.02282
380.0,0.02283
380.5,0.02296
381.0,0.02309
381.5,0.02323
382.0,0.02336
382.5,0.02349
383.0,0.02363
383.5,0.02376
384.0,0.02389
384.5,0.02402
385.0,0.02416
385.5,0.02429
386.0,0.02442
386.5,0.02456
387.0,0.02469
387.5,0.02482
388.0,0.02496
388.5,0.02509
389.0,0.02522
389.5,0.02536
390.0,0.02549
390.5,0.02557
391.0,0.02564
391.5,0.02571
392.0,0.02579
392.5,0.02586
393.0,0.02594
393.5,0.02601
394.0,0.02609
394.5,0.02616
395.0,0.02624
395.5,0.02631
396.0,0.02639
396.5,0.02647
397.0,0.02654
397.5,0.02662
398.0,0.02669
398.5,0.02677
399.0,0.02685
399.5,0.02692
400.0,0.02699
401.0,0.02732
402.0,0.0276
403.0,0.02788
404.0,0.02816
405.0,0.02843
406.0,0.02872
407.0,0.029
408.0,0.02928
409.0,0.02957
410.0,0.02985
411.0,0.03001
412.0,0.03018
413.0,0.03033
414.0,0.0305
415.0,0.03066
416.0,0.03083
417.0,0.03099
418.0,0.03116
419.0,0.03132
420.0,0.03148
421.0,0.03165
422.0,0.03181
423.0,0.03198
424.0,0.03215
425.0,0.03232
426.0,0.03249
427.0,0.03266
428.0,0.03282
429.0,0.03299
430.0,0.03316
431.0,0.03332
432.0,0.0335
433.0,0.03367
434.0,0.03384
435.0,0.034
436.0,0.03418
437.0,0.03436
438.0,0.03453
439.0,0.03469
440.0,0.03487
441.0,0.03492
442.0,0.03497
443.0,0.035
444.0,0.03504
445.0,0.03507
446.0,0.03512
447.0,0.03517
448.0,0.0352
449.0,0.03526
450.0,0.03531
451.0,0.03535
452.0,0.03539
453.0,0.03543
454.0,0.03548
455.0,0.03552
456.0,0.03557
457.0,0.03561
458.0,0.03565
459.0,0.0357
460.0,0.03574
461.0,0.03592
462.0,0.0361
463.0,0.03626
464.0,0.03643
465.0,0.03661
466.0,0.03678
467.0,0.03695
468.0,0.03712
469.0,0.0373
470.0,0.03747
471.0,0.03777
472.0,0.03807
473.0,0.03837
474.0,0.03866
475.0,0.03895
476.0,0.03924
477.0,0.03955
478.0,0.03988
479.0,0.04022
480.0,0.04056
481.0,0.04091
482.0,0.04124
483.0,0.04157
484.0,0.04188
485.0,0.04218
486.0,0.0425
487.0,0.04281
488.0,0.04312
489.0,0.04343
490.0,0.04376
491.0,0.04395
492.0,0.04413
493.0,0.0443
494.0,0.04448
495.0,0.04466
496.0,0.04484
497.0,0.04503
498.0,0.04522
499.0,0.0454
500.0,0.04559
501.0,0.04632
502.0,0.04705
503.0,0.04777
504.0,0.04841
505.0,0.04924
506.0,0.04996
507.0,0.05069
508.0,0.05144
509.0,0.05218
510.0,0.05293
511.0,0.05396
512.0,0.05499
513.0,0.05601
514.0,0.05705
515.0,0.05808
516.0,0.0591
517.0,0.06013
518.0,0.06116
519.0,0.06218
520.0,0.06321
521.0,0.06439
522.0,0.06556
523.0,0.06674
524.0,0.06791
525.0,0.06907
526.0,0.07026
527.0,0.07144
528.0,0.07263
529.0,0.07382
530.0,0.075
531.0,0.07576
532.0,0.07652
533.0,0.07729
534.0,0.07806
535.0,0.07883
536.0,0.0796
537.0,0.08037
538.0,0.08114
539.0,0.0819
540.0,0.08266
541.0,0.08325
542.0,0.08387
543.0,0.08454
544.0,0.08514
545.0,0.08578
546.0,0.08638
547.0,0.08705
548.0,0.0877
549.0,0.08833
550.0,0.08897
551.0,0.08932
552.0,0.08967
553.0,0.09
554.0,0.09035
555.0,0.09069
556.0,0.09104
557.0,0.09138
558.0,0.09172
559.0,0.09206
560.0,0.09241
561.0,0.09261
562.0,0.0928
563.0,0.09298
564.0,0.09317
565.0,0.09335
566.0,0.09353
567.0,0.09371
568.0,0.09383
569.0,0.09388
570.0,0.0941
571.0,0.09405
572.0,0.09386
573.0,0.09374
574.0,0.09362
575.0,0.09348
576.0,0.09337
577.0,0.09327
578.0,0.0932
579.0,0.09315
580.0,0.09315
581.0,0.09311
582.0,0.09306
583.0,0.093
584.0,0.09292
585.0,0.09283
586.0,0.09272
587.0,0.09257
588.0,0.09229
589.0,0.09181
590.0,0.09173
591.0,0.09141
592.0,0.09075
593.0,0.09038
594.0,0.0898
595.0,0.08912
596.0,0.08888
597.0,0.08826
598.0,0.08782
599.0,0.08731
600.0,0.08682
601.0,0.08661
602.0,0.08636
603.0,0.08612
604.0,0.08587
605.0,0.0856
606.0,0.08534
607.0,0.08508
608.0,0.08481
609.0,0.08455
610.0,0.08428
611.0,0.08357
612.0,0.08285
613.0,0.08213
614.0,0.08142
615.0,0.08071
616.0,0.07999
617.0,0.07927
618.0,0.07855
619.0,0.07783
620.0,0.0771
621.0,0.07666
622.0,0.07623
623.0,0.0758
624.0,0.07538
625.0,0.07493
626.0,0.07449
627.0,0.07401
628.0,0.07294
629.0,0.07295
630.0,0.07249
631.0,0.07224
632.0,0.07185
633.0,0.07148
634.0,0.0711
635.0,0.07068
636.0,0.07028
637.0,0.06986
638.0,0.06946
639.0,0.06904
640.0,0.06862
641.0,0.06834
642.0,0.06807
643.0,0.06778
644.0,0.06751
645.0,0.06721
646.0,0.06688
647.0,0.06646
648.0,0.0662
649.0,0.06588
650.0,0.06575
651.0,0.06548
652.0,0.06507
653.0,0.06492
654.0,0.06464
655.0,0.06428
656.0,0.06404
657.0,0.06376
658.0,0.06352
659.0,0.06325
660.0,0.06297
661.0,0.06285
662.0,0.0627
663.0,0.06256
664.0,0.06244
665.0,0.06232
666.0,0.06218
667.0,0.06205
668.0,0.06192
669.0,0.06178
670.0,0.06164
671.0,0.06166
672.0,0.06167
673.0,0.06168
674.0,0.0617
675.0,0.06171
676.0,0.06172
677.0,0.06173
678.0,0.06175
679.0,0.06176
680.0,0.06177
681.0,0.06178
682.0,0.06179
683.0,0.0618
684.0,0.06181
685.0,0.06182
686.0,0.06183
687.0,0.05828
688.0,0.06001
689.0,0.06008
690.0,0.06055
691.0,0.06132
692.0,0.06195
693.0,0.06227
694.0,0.06267
695.0,0.06318
696.0,0.0635
697.0,0.06399
698.0,0.06429
699.0,0.06447
700.0,0.06478
701.0,0.06547
702.0,0.06629
703.0,0.06708
704.0,0.06793
705.0,0.06869
706.0,0.06948
707.0,0.07026
708.0,0.07102
709.0,0.07184
710.0,0.07257
711.0,0.07805
712.0,0.08354
713.0,0.08896
714.0,0.09443
715.0,0.09981
716.0,0.1052
717.0,0.1097
718.0,0.115
719.0,0.1203
720.0,0.1255
721.0,0.1332
722.0,0.1408
723.0,0.1474
724.0,0.1538
725.0,0.1606
726.0,0.1675
727.0,0.1749
728.0,0.1813
729.0,0.1888
730.0,0.1955
731.0,0.2033
732.0,0.2119
733.0,0.2202
734.0,0.2283
735.0,0.236
736.0,0.2439
737.0,0.2518
738.0,0.2602
739.0,0.2681
740.0,0.2761
741.0,0.2849
742.0,0.2936
743.0,0.3024
744.0,0.3111
745.0,0.3198
746.0,0.3285
747.0,0.3372
748.0,0.3459
749.0,0.3546
750.0,0.3633
751.0,0.3676
752.0,0.3719
753.0,0.3761
754.0,0.3804
755.0,0.3847
756.0,0.389
757.0,0.3933
758.0,0.3976
759.0,0.4014
760.0,0.3158
761.0,0.3155
762.0,0.3791
763.0,0.3359
764.0,0.3631
765.0,0.391
766.0,0.4133
767.0,0.4284
768.0,0.4381
769.0,0.4434
770.0,0.4487
771.0,0.4518
772.0,0.4545
773.0,0.4572
774.0,0.4599
775.0,0.4626
776.0,0.4652
777.0,0.4679
778.0,0.4705
779.0,0.4732
780.0,0.4758
781.0,0.4774
782.0,0.479
783.0,0.4805
784.0,0.4821
785.0,0.4836
786.0,0.4852
787.0,0.4864
788.0,0.4878
789.0,0.4894
790.0,0.4905
791.0,0.4918
792.0,0.4927
793.0,0.4935
794.0,0.4947
795.0,0.4954
796.0,0.4955
797.0,0.4962
798.0,0.4977
799.0,0.4984
800.0,0.4991
801.0,0.499
802.0,0.499
803.0,0.4989
804.0,0.4991
805.0,0.4994
806.0,0.4997
807.0,0.4998
808.0,0.4998
809.0,0.4996
810.0,0.4996
811.0,0.499
812.0,0.4979
813.0,0.4975
814.0,0.4957
815.0,0.4955
816.0,0.4947
817.0,0.4943
818.0,0.4935
819.0,0.4943
820.0,0.4936
821.0,0.4945
822.0,0.4935
823.0,0.4885
824.0,0.4914
825.0,0.4917
826.0,0.4903
827.0,0.4901
828.0,0.4875
829.0,0.4883
830.0,0.4876
831.0,0.4868
832.0,0.4858
833.0,0.4857
834.0,0.4846
835.0,0.4849
836.0,0.4834
837.0,0.4834
838.0,0.4824
839.0,0.4819
840.0,0.4813
841.0,0.4812
842.0,0.4814
843.0,0.4817
844.0,0.4817
845.0,0.4818
846.0,0.4819
847.0,0.482
848.0,0.482
849.0,0.482
850.0,0.4821
851.0,0.4826
852.0,0.4834
853.0,0.4841
854.0,0.4847
855.0,0.4854
856.0,0.486
857.0,0.4867
858.0,0.4873
859.0,0.488
860.0,0.4887
861.0,0.4895
862.0,0.4903
863.0,0.4911
864.0,0.4919
865.0,0.4927
866.0,0.4935
867.0,0.4943
868.0,0.4951
869.0,0.4959
870.0,0.4967
871.0,0.4974
872.0,0.498
873.0,0.4987
874.0,0.4993
875.0,0.4999
876.0,0.5006
877.0,0.5012
878.0,0.5019
879.0,0.5025
880.0,0.5032
881.0,0.5032
882.0,0.5032
883.0,0.5033
884.0,0.5033
885.0,0.5033
886.0,0.5032
887.0,0.5034
888.0,0.5033
889.0,0.5035
890.0,0.5034
891.0,0.5033
892.0,0.503
893.0,0.5027
894.0,0.5021
895.0,0.5013
896.0,0.501
897.0,0.4998
898.0,0.5
899.0,0.4983
900.0,0.5004
901.0,0.4973
902.0,0.498
903.0,0.4965
904.0,0.4977
905.0,0.4967
906.0,0.4956
907.0,0.4927
908.0,0.4924
909.0,0.492
910.0,0.4898
911.0,0.4902
912.0,0.4891
913.0,0.4871
914.0,0.4866
915.0,0.4854
916.0,0.4844
917.0,0.4847
918.0,0.4824
919.0,0.4833
920.0,0.4833
921.0,0.4818
922.0,0.4798
923.0,0.4792
924.0,0.4767
925.0,0.4754
926.0,0.4739
927.0,0.4731
928.0,0.4685
929.0,0.4659
930.0,0.46
931.0,0.4573
932.0,0.4462
933.0,0.4379
934.0,0.3961
935.0,0.4386
936.0,0.4213
937.0,0.4206
938.0,0.4234
939.0,0.4432
940.0,0.4445
941.0,0.4372
942.0,0.4367
943.0,0.4285
944.0,0.4322
945.0,0.4292
946.0,0.4121
947.0,0.4232
948.0,0.4205
949.0,0.4223
950.0,0.3941
951.0,0.4177
952.0,0.4083
953.0,0.4109
954.0,0.412
955.0,0.408
956.0,0.4111
957.0,0.3991
958.0,0.408
959.0,0.403
960.0,0.4013
961.0,0.4024
962.0,0.4016
963.0,0.402
964.0,0.4008
965.0,0.4
966.0,0.3993
967.0,0.3981
968.0,0.4
969.0,0.3986
970.0,0.3977
971.0,0.3995
972.0,0.4004
973.0,0.4005
974.0,0.4016
975.0,0.4029
976.0,0.4033
977.0,0.4058
978.0,0.4063
979.0,0.4076
980.0,0.4087
981.0,0.41
982.0,0.4104
983.0,0.4109
984.0,0.4122
985.0,0.4123
986.0,0.4137
987.0,0.4142
988.0,0.4149
989.0,0.4157
990.0,0.4161
991.0,0.4164
992.0,0.4164
993.0,0.4163
994.0,0.4164
995.0,0.4165
996.0,0.4165
997.0,0.4165
998.0,0.4165
999.0,0.4165
1000.0,0.4165
1001.0,0.4163
1002.0,0.4158
1003.0,0.4157
1004.0,0.4153
1005.0,0.4151
1006.0,0.4148
1007.0,0.4145
1008.0,0.4141
1009.0,0.4138
1010.0,0.4135
1011.0,0.4131
1012.0,0.4127
1013.0,0.4123
1014.0,0.4118
1015.0,0.4113
1016.0,0.4109
1017.0,0.4104
1018.0,0.41
1019.0,0.4095
1020.0,0.4091
1021.0,0.4085
1022.0,0.4079
1023.0,0.4073
1024.0,0.4066
1025.0,0.4061
1026.0,0.4054
1027.0,0.4048
1028.0,0.4042
1029.0,0.4036
1030.0,0.403
1031.0,0.4024
1032.0,0.4018
1033.0,0.4012
1034.0,0.4006
1035.0,0.4
1036.0,0.3994
1037.0,0.3988
1038.0,0.3982
1039.0,0.3975
1040.0,0.3969
1041.0,0.3962
1042.0,0.3954
1043.0,0.3946
1044.0,0.3939
1045.0,0.3931
1046.0,0.3923
1047.0,0.3916
1048.0,0.3908
1049.0,0.39
1050.0,0.3893
1051.0,0.3883
1052.0,0.3874
1053.0,0.3865
1054.0,0.3855
1055.0,0.3846
1056.0,0.3837
1057.0,0.3828
1058.0,0.3818
1059.0,0.3809
1060.0,0.38
1061.0,0.3787
1062.0,0.3775
1063.0,0.3763
1064.0,0.375
1065.0,0.3738
1066.0,0.3726
1067.0,0.3713
1068.0,0.3701
1069.0,0.3689
1070.0,0.3676
1071.0,0.3666
1072.0,0.3655
1073.0,0.3644
1074.0,0.3634
1075.0,0.3622
1076.0,0.3613
1077.0,0.3601
1078.0,0.359
1079.0,0.3581
1080.0,0.3569
1081.0,0.3556
1082.0,0.3545
1083.0,0.3533
1084.0,0.3519
1085.0,0.3507
1086.0,0.3493
1087.0,0.3482
1088.0,0.3471
1089.0,0.3457
1090.0,0.3444
1091.0,0.3429
1092.0,0.3412
1093.0,0.3391
1094.0,0.3378
1095.0,0.3357
1096.0,0.3339
1097.0,0.3327
1098.0,0.3304
1099.0,0.3288
1100.0,0.3269
1101.0,0.325
1102.0,0.3228
1103.0,0.3207
1104.0,0.3187
1105.0,0.317
1106.0,0.3138
1107.0,0.3129
1108.0,0.3102
1109.0,0.3082
1110.0,0.3067
1111.0,0.3028
1112.0,0.3017
1113.0,0.2972
1114.0,0.2948
1115.0,0.292
1116.0,0.2865
1117.0,0.2679
1118.0,0.2824
1119.0,0.2714
1120.0,0.2666
1121.0,0.2672
1122.0,0.2426
1123.0,0.2588
1124.0,0.2561
1125.0,0.2569
1126.0,0.2182
1127.0,0.2518
1128.0,0.2328
1129.0,0.2314
1130.0,0.2313
1131.0,0.2478
1132.0,0.2434
1133.0,0.2319
1134.0,0.1993
1135.0,0.204
1136.0,0.2173
1137.0,0.2291
1138.0,0.2249
1139.0,0.2259
1140.0,0.2216
1141.0,0.2177
1142.0,0.2173
1143.0,0.2176
1144.0,0.2105
1145.0,0.2038
1146.0,0.2024
1147.0,0.1752
1148.0,0.2096
1149.0,0.2068
1150.0,0.2041
1151.0,0.2036
1152.0,0.2048
1153.0,0.2052
1154.0,0.1979
1155.0,0.2046
1156.0,0.2036
1157.0,0.204
1158.0,0.2034
1159.0,0.2029
1160.0,0.2023
1161.0,0.2024
1162.0,0.2019
1163.0,0.202
1164.0,0.2013
1165.0,0.2007
1166.0,0.2004
1167.0,0.2
1168.0,0.1996
1169.0,0.1991
1170.0,0.1988
1171.0,0.1986
1172.0,0.1986
1173.0,0.1983
1174.0,0.1978
1175.0,0.1981
1176.0,0.1981
1177.0,0.1979
1178.0,0.1975
1179.0,0.1976
1180.0,0.1973
1181.0,0.1973
1182.0,0.1969
1183.0,0.1974
1184.0,0.1973
1185.0,0.1972
1186.0,0.1974
1187.0,0.1974
1188.0,0.1968
1189.0,0.1974
1190.0,0.1975
1191.0,0.1973
1192.0,0.1975
1193.0,0.1974
1194.0,0.1975
1195.0,0.1974
1196.0,0.1973
1197.0,0.1975
1198.0,0.1975
1199.0,0.1972
1200.0,0.1975
1201.0,0.1974
1202.0,0.1975
1203.0,0.1974
1204.0,0.1973
1205.0,0.1975
1206.0,0.1976
1207.0,0.1975
1208.0,0.1975
1209.0,0.1975
1210.0,0.1976
1211.0,0.1975
1212.0,0.1974
1213.0,0.1976
1214.0,0.1974
1215.0,0.1974
1216.0,0.1976
1217.0,0.1976
1218.0,0.1976
1219.0,0.1976
1220.0,0.1976
1221.0,0.1976
1222.0,0.1976
1223.0,0.1976
1224.0,0.1976
1225.0,0.1976
1226.0,0.1977
1227.0,0.1976
1228.0,0.1977
1229.0,0.1977
1230.0,0.1977
1231.0,0.1977
1232.0,0.1977
1233.0,0.1976
1234.0,0.1977
1235.0,0.1977
1236.0,0.1977
1237.0,0.1977
1238.0,0.1977
1239.0,0.1977
1240.0,0.1977
1241.0,0.1977
1242.0,0.1977
1243.0,0.1977
1244.0,0.1977
1245.0,0.1977
1246.0,0.1977
1247.0,0.1977
1248.0,0.1977
1249.0,0.1977
1250.0,0.1977
1251.0,0.1977
1252.0,0.1978
1253.0,0.1977
1254.0,0.1977
1255.0,0.1978
1256.0,0.1977
1257.0,0.1977
1258.0,0.1977
1259.0,0.1977
1260.0,0.1977
1261.0,0.1976
1262.0,0.1975
1263.0,0.1975
1264.0,0.1973
1265.0,0.1975
1266.0,0.1974
1267.0,0.1975
1268.0,0.1973
1269.0,0.1939
1270.0,0.1974
1271.0,0.1976
1272.0,0.1976
1273.0,0.1976
1274.0,0.1976
1275.0,0.1976
1276.0,0.1977
1277.0,0.1977
1278.0,0.1977
1279.0,0.1978
1280.0,0.1978
1281.0,0.1978
1282.0,0.1978
1283.0,0.1978
1284.0,0.1978
1285.0,0.1978
1286.0,0.1978
1287.0,0.1978
1288.0,0.1978
1289.0,0.1978
1290.0,0.1978
1291.0,0.1978
1292.0,0.1977
1293.0,0.1978
1294.0,0.1978
1295.0,0.1978
1296.0,0.1977
1297.0,0.1977
1298.0,0.1978
1299.0,0.1978
1300.0,0.1977
1301.0,0.1977
1302.0,0.1978
1303.0,0.1977
1304.0,0.1975
1305.0,0.1978
1306.0,0.1978
1307.0,0.1976
1308.0,0.1977
1309.0,0.1977
1310.0,0.1975
1311.0,0.1977
1312.0,0.1977
1313.0,0.1976
1314.0,0.1975
1315.0,0.1975
1316.0,0.1977
1317.0,0.1976
1318.0,0.1977
1319.0,0.1974
1320.0,0.1974
1321.0,0.1976
1322.0,0.1975
1323.0,0.1971
1324.0,0.1974
1325.0,0.1976
1326.0,0.1975
1327.0,0.1974
1328.0,0.1973
1329.0,0.1965
1330.0,0.197
1331.0,0.1954
1332.0,0.1958
1333.0,0.1961
1334.0,0.197
1335.0,0.197
1336.0,0.1964
1337.0,0.1965
1338.0,0.1964
1339.0,0.1964
1340.0,0.1967
1341.0,0.1957
1342.0,0.196
1343.0,0.1922
1344.0,0.193
1345.0,0.1912
1346.0,0.174
1347.0,0.1682
1348.0,0.1499
1349.0,0.1504
1350.0,0.1504
1351.0,0.1483
1352.0,0.1482
1353.0,0.1482
1354.0,0.1482
1355.0,0.1482
1356.0,0.1482
1357.0,0.1482
1358.0,0.1482
1359.0,0.1482
1360.0,0.1482
1361.0,0.1482
1362.0,0.1482
1363.0,0.1482
1364.0,0.1482
1365.0,0.1482
1366.0,0.1482
1367.0,0.1482
1368.0,0.1482
1369.0,0.1482
1370.0,0.1482
1371.0,0.1482
1372.0,0.1482
1373.0,0.1482
1374.0,0.1482
1375.0,0.1482
1376.0,0.1482
1377.0,0.1482
1378.0,0.1482
1379.0,0.1482
1380.0,0.1482
1381.0,0.1482
1382.0,0.1482
1383.0,0.1482
1384.0,0.1482
1385.0,0.1482
1386.0,0.1482
1387.0,0.1482
1388.0,0.1482
1389.0,0.1482
1390.0,0.1482
1391.0,0.1482
1392.0,0.1482
1393.0,0.1482
1394.0,0.1482
1395.0,0.1482
1396.0,0.1482
1397.0,0.1482
1398.0,0.1482
1399.0,0.1482
1400.0,0.1482
1401.0,0.1482
1402.0,0.1484
1403.0,0.1482
1404.0,0.1482
1405.0,0.1482
1406.0,0.1482
1407.0,0.1484
1408.0,0.1482
1409.0,0.1482
1410.0,0.1482
1411.0,0.1483
1412.0,0.1485
1413.0,0.1497
1414.0,0.1482
1415.0,0.1482
1416.0,0.1669
1417.0,0.1572
1418.0,0.1493
1419.0,0.149
1420.0,0.1493
1421.0,0.1565
1422.0,0.1677
1423.0,0.1657
1424.0,0.1782
1425.0,0.1662
1426.0,0.1809
1427.0,0.1834
1428.0,0.1494
1429.0,0.1744
1430.0,0.1889
1431.0,0.19
1432.0,0.1494
1433.0,0.1867
1434.0,0.1824
1435.0,0.164
1436.0,0.181
1437.0,0.1803
1438.0,0.174
1439.0,0.1826
1440.0,0.1869
1441.0,0.1751
1442.0,0.1653
1443.0,0.1796
1444.0,0.189
1445.0,0.1796
1446.0,0.1655
1447.0,0.1794
1448.0,0.1943
1449.0,0.1939
1450.0,0.1842
1451.0,0.1794
1452.0,0.1889
1453.0,0.1906
1454.0,0.196
1455.0,0.1927
1456.0,0.1925
1457.0,0.1949
1458.0,0.1965
1459.0,0.1966
1460.0,0.1955
1461.0,0.1927
1462.0,0.196
1463.0,0.1926
1464.0,0.1967
1465.0,0.1963
1466.0,0.1894
1467.0,0.1846
1468.0,0.192
1469.0,0.1946
1470.0,0.1759
1471.0,0.1856
1472.0,0.1751
1473.0,0.19
1474.0,0.1956
1475.0,0.197
1476.0,0.1936
1477.0,0.1916
1478.0,0.1952
1479.0,0.1963
1480.0,0.1917
1481.0,0.1957
1482.0,0.1947
1483.0,0.1968
1484.0,0.1971
1485.0,0.197
1486.0,0.1962
1487.0,0.1929
1488.0,0.1965
1489.0,0.1975
1490.0,0.1976
1491.0,0.1977
1492.0,0.1971
1493.0,0.1975
1494.0,0.1978
1495.0,0.1977
1496.0,0.1976
1497.0,0.198
1498.0,0.1978
1499.0,0.1979
1500.0,0.198
1501.0,0.198
1502.0,0.198
1503.0,0.1978
1504.0,0.1977
1505.0,0.1979
1506.0,0.198
1507.0,0.198
1508.0,0.198
1509.0,0.1979
1510.0,0.1981
1511.0,0.198
1512.0,0.1981
1513.0,0.198
1514.0,0.1979
1515.0,0.1981
1516.0,0.1981
1517.0,0.198
1518.0,0.198
1519.0,0.198
1520.0,0.1981
1521.0,0.1981
1522.0,0.1981
1523.0,0.1981
1524.0,0.1981
1525.0,0.1981
1526.0,0.1981
1527.0,0.1981
1528.0,0.1981
1529.0,0.1981
1530.0,0.1981
1531.0,0.1981
1532.0,0.1981
1533.0,0.1981
1534.0,0.1981
1535.0,0.1981
1536.0,0.1981
1537.0,0.1981
1538.0,0.1981
1539.0,0.1981
1540.0,0.1981
1541.0,0.1981
1542.0,0.1981
1543.0,0.1981
1544.0,0.1981
1545.0,0.1982
1546.0,0.1981
1547.0,0.1982
1548.0,0.1982
1549.0,0.1982
1550.0,0.1982
1551.0,0.1982
1552.0,0.1982
1553.0,0.1982
1554.0,0.1982
1555.0,0.1982
1556.0,0.1982
1557.0,0.1982
1558.0,0.1982
1559.0,0.1982
1560.0,0.1982
1561.0,0.1982
1562.0,0.1982
1563.0,0.1982
1564.0,0.1982
1565.0,0.1982
1566.0,0.1982
1567.0,0.1982
1568.0,0.1982
1569.0,0.1982
1570.0,0.1982
1571.0,0.1982
1572.0,0.1982
1573.0,0.1982
1574.0,0.1982
1575.0,0.1982
1576.0,0.1982
1577.0,0.1982
1578.0,0.1982
1579.0,0.1982
1580.0,0.1982
1581.0,0.1982
1582.0,0.1982
1583.0,0.1982
1584.0,0.1982
1585.0,0.1982
1586.0,0.1982
1587.0,0.1982
1588.0,0.1982
1589.0,0.1982
1590.0,0.1982
1591.0,0.1982
1592.0,0.1982
1593.0,0.1982
1594.0,0.1982
1595.0,0.1982
1596.0,0.1982
1597.0,0.1982
1598.0,0.1982
1599.0,0.1982
1600.0,0.1982
1601.0,0.1982
1602.0,0.1982
1603.0,0.1982
1604.0,0.1982
1605.0,0.1982
1606.0,0.1982
1607.0,0.1982
1608.0,0.1982
1609.0,0.1982
1610.0,0.1982
1611.0,0.1982
1612.0,0.1982
1613.0,0.1982
1614.0,0.1982
1615.0,0.1982
1616.0,0.1982
1617.0,0.1982
1618.0,0.1982
1619.0,0.1982
1620.0,0.1982
1621.0,0.1982
1622.0,0.1982
1623.0,0.1982
1624.0,0.1982
1625.0,0.1982
1626.0,0.1982
1627.0,0.1982
1628.0,0.1982
1629.0,0.1982
1630.0,0.1982
1631.0,0.1982
1632.0,0.1982
1633.0,0.1982
1634.0,0.1982
1635.0,0.1982
1636.0,0.1982
1637.0,0.1982
1638.0,0.1982
1639.0,0.1982
1640.0,0.1982
1641.0,0.1982
1642.0,0.1982
1643.0,0.1982
1644.0,0.1982
1645.0,0.1982
1646.0,0.1982
1647.0,0.1982
1648.0,0.1982
1649.0,0.1982
1650.0,0.1982
1651.0,0.1982
1652.0,0.1982
1653.0,0.1982
1654.0,0.1982
1655.0,0.1982
1656.0,0.1982
1657.0,0.1982
1658.0,0.1982
1659.0,0.1982
1660.0,0.1982
1661.0,0.1982
1662.0,0.1982
1663.0,0.1982
1664.0,0.1982
1665.0,0.1982
1666.0,0.198
1667.0,0.1982
1668.0,0.1982
1669.0,0.1982
1670.0,0.1982
1671.0,0.1982
1672.0,0.1982
1673.0,0.1982
1674.0,0.1982
1675.0,0.1982
1676.0,0.1982
1677.0,0.1982
1678.0,0.1982
1679.0,0.1982
1680.0,0.1982
1681.0,0.1982
1682.0,0.1982
1683.0,0.1982
1684.0,0.1982
1685.0,0.1982
1686.0,0.1982
1687.0,0.1982
1688.0,0.1982
1689.0,0.1982
1690.0,0.1982
1691.0,0.1982
1692.0,0.1982
1693.0,0.1982
1694.0,0.1982
1695.0,0.1982
1696.0,0.1982
1697.0,0.1982
1698.0,0.1982
1699.0,0.1982
1700.0,0.1982
1702.0,0.1982
1705.0,0.1982
1710.0,0.1982
1715.0,0.1982
1720.0,0.1982
1725.0,0.1982
1730.0,0.1982
1735.0,0.1982
1740.0,0.1982
1745.0,0.1982
1750.0,0.1982
1755.0,0.1982
1760.0,0.1982
1765.0,0.1982
1770.0,0.1982
1775.0,0.1981
1780.0,0.198
1785.0,0.1979
1790.0,0.1979
1795.0,0.1949
1800.0,0.1965
1805.0,0.168
1810.0,0.1875
1815.0,0.1487
1820.0,0.1482
1825.0,0.1482
1830.0,0.1482
1835.0,0.1482
1840.0,0.1482
1845.0,0.1482
1850.0,0.1482
1855.0,0.1482
1860.0,0.1482
1865.0,0.1482
1870.0,0.1482
1875.0,0.1482
1880.0,0.1482
1885.0,0.1482
1890.0,0.1482
1895.0,0.1482
1900.0,0.1482
1905.0,0.1482
1910.0,0.1482
1915.0,0.1482
1920.0,0.1482
1925.0,0.1482
1930.0,0.1486
1935.0,0.1559
1940.0,0.181
1945.0,0.1869
1950.0,0.1963
1955.0,0.192
1960.0,0.1973
1965.0,0.198
1970.0,0.1982
1975.0,0.1982
1980.0,0.1982
1985.0,0.1983
1990.0,0.1983
1995.0,0.1983
2000.0,0.1983
2005.0,0.1983
2010.0,0.1983
2015.0,0.1983
2020.0,0.1983
2025.0,0.1983
2030.0,0.1983
2035.0,0.1983
2040.0,0.1983
2045.0,0.1983
2050.0,0.1983
2055.0,0.1983
2060.0,0.1983
2065.0,0.1983
2070.0,0.1983
2075.0,0.1983
2080.0,0.1984
2085.0,0.1984
2090.0,0.1984
2095.0,0.1984
2100.0,0.1983
2105.0,0.1984
2110.0,0.1984
2115.0,0.1984
2120.0,0.1984
2125.0,0.1984
2130.0,0.1984
2135.0,0.1984
2140.0,0.1984
2145.0,0.1984
2150.0,0.1984
2155.0,0.1984
2160.0,0.1984
2165.0,0.1984
2170.0,0.1984
2175.0,0.1984
2180.0,0.1984
2185.0,0.1984
2190.0,0.1984
2195.0,0.1984
2200.0,0.1983
2205.0,0.1984
2210.0,0.1984
2215.0,0.1984
2220.0,0.1984
2225.0,0.1984
2230.0,0.1984
2235.0,0.1984
2240.0,0.1984
2245.0,0.1984
2250.0,0.1984
2255.0,0.1984
2260.0,0.1984
2265.0,0.1984
2270.0,0.1984
2275.0,0.1983
2280.0,0.1984
2285.0,0.1984
2290.0,0.1984
2295.0,0.1984
2300.0,0.1983
2305.0,0.1983
2310.0,0.1984
2315.0,0.1983
2320.0,0.1983
2325.0,0.1984
2330.0,0.1984
2335.0,0.1984
2340.0,0.1983
2345.0,0.1983
2350.0,0.1983
2355.0,0.1983
2360.0,0.1983
2365.0,0.1984
2370.0,0.1981
2375.0,0.1983
2380.0,0.1983
2385.0,0.1983
2390.0,0.1983
2395.0,0.1983
2400.0,0.1983
2405.0,0.1983
2410.0,0.1983
2415.0,0.1982
2420.0,0.1982
2425.0,0.1983
2430.0,0.1983
2435.0,0.198
2440.0,0.1983
2445.0,0.1981
2450.0,0.1979
2455.0,0.1983
2460.0,0.1983
2465.0,0.1981
2470.0,0.1975
2475.0,0.1975
2480.0,0.1969
2485.0,0.1873
2490.0,0.1675
2495.0,0.1687
2500.0,0.1926
2505.0,0.1924
2510.0,0.1937
2515.0,0.1804
2520.0,0.1482
2525.0,0.1488
2530.0,0.1482
2535.0,0.1482
2540.0,0.1482
2545.0,0.1482
2550.0,0.1482
2555.0,0.1482
2560.0,0.1482
2565.0,0.1482
2570.0,0.1482
2575.0,0.2595
2580.0,0.1482
2585.0,0.2595
2590.0,0.2595
2595.0,0.2595
2600.0,0.2595
2605.0,0.2595
2610.0,0.2595
2615.0,0.2595
2620.0,0.2595
2625.0,0.2595
2630.0,0.2595
2635.0,0.1482
2640.0,0.1482
2645.0,0.1482
2650.0,0.1482
2655.0,0.2595
2660.0,0.2595
2665.0,0.2595
2670.0,0.2595
2675.0,0.2595
2680.0,0.2595
2685.0,0.2595
2690.0,0.2595
2695.0,0.2595
2700.0,0.1482
2705.0,0.1482
2710.0,0.2595
2715.0,0.1482
2720.0,0.2595
2725.0,0.1482
2730.0,0.1482
2735.0,0.1482
2740.0,0.2595
2745.0,0.1482
2750.0,0.1482
2755.0,0.1482
2760.0,0.1482
2765.0,0.1482
2770.0,0.1482
2775.0,0.1482
2780.0,0.1482
2785.0,0.1482
2790.0,0.1482
2795.0,0.1482
2800.0,0.1482
2805.0,0.1482
2810.0,0.1482
2815.0,0.1482
2820.0,0.1482
2825.0,0.1482
2830.0,0.1482
2835.0,0.1482
2840.0,0.1482
2845.0,0.1482
2850.0,0.1482
2855.0,0.1483
2860.0,0.1482
2865.0,0.1482
2870.0,0.1482
2875.0,0.1486
2880.0,0.1606
2885.0,0.1486
2890.0,0.1668
2895.0,0.1898
2900.0,0.1651
2905.0,0.1542
2910.0,0.1923
2915.0,0.186
2920.0,0.1915
2925.0,0.1948
2930.0,0.1973
2935.0,0.1972
2940.0,0.1957
2945.0,0.1772
2950.0,0.1966
2955.0,0.1969
2960.0,0.1978
2965.0,0.1981
2970.0,0.1796
2975.0,0.1963
2980.0,0.1962
2985.0,0.1981
2990.0,0.1983
2995.0,0.1974
3000.0,0.1981
3005.0,0.1975
3010.0,0.1982
3015.0,0.198
3020.0,0.1578
3025.0,0.1981
3030.0,0.1981
3035.0,0.1964
3040.0,0.1974
3045.0,0.1973
3050.0,0.1954
3055.0,0.1862
3060.0,0.1981
3065.0,0.1974
3070.0,0.1949
3075.0,0.1981
3080.0,0.1977
3085.0,0.1943
3090.0,0.1961
3095.0,0.1873
3100.0,0.1979
3105.0,0.1968
3110.0,0.1678
3115.0,0.1946
3120.0,0.1983
3125.0,0.1982
3130.0,0.1983
3135.0,0.1983
3140.0,0.1979
3145.0,0.198
3150.0,0.1983
3155.0,0.1983
3160.0,0.1983
3165.0,0.1984
3170.0,0.1984
3175.0,0.1983
3180.0,0.1984
3185.0,0.1981
3190.0,0.1982
3195.0,0.1944
3200.0,0.1588
3205.0,0.1505
3210.0,0.1557
3215.0,0.1859
3220.0,0.1851
3225.0,0.1898
3230.0,0.1817
3235.0,0.1982
3240.0,0.1962
3245.0,0.1973
3250.0,0.1972
3255.0,0.1983
3260.0,0.1955
3265.0,0.1964
3270.0,0.1868
3275.0,0.1981
3280.0,0.1974
3285.0,0.1984
3290.0,0.1983
3295.0,0.1976
3300.0,0.197
3305.0,0.1978
3310.0,0.1974
3315.0,0.1482
3320.0,0.1488
3325.0,0.1963
3330.0,0.1983
3335.0,0.1983
3340.0,0.1983
3345.0,0.198
3350.0,0.1984
3355.0,0.1981
3360.0,0.1983
3365.0,0.1984
3370.0,0.1978
3375.0,0.1984
3380.0,0.1981
3385.0,0.1984
3390.0,0.1984
3395.0,0.1984
3400.0,0.1984
3405.0,0.1981
3410.0,0.1984
3415.0,0.1983
3420.0,0.1984
3425.0,0.1984
3430.0,0.1984
3435.0,0.1984
3440.0,0.1983
3445.0,0.1984
3450.0,0.1984
3455.0,0.1984
3460.0,0.1984
3465.0,0.1984
3470.0,0.1984
3475.0,0.1984
3480.0,0.1984
3485.0,0.1984
3490.0,0.1984
3495.0,0.1984
3500.0,0.1984
3505.0,0.1984
3510.0,0.1984
3515.0,0.1984
3520.0,0.1984
3525.0,0.1984
3530.0,0.1984
3535.0,0.1984
3540.0,0.1984
3545.0,0.1984
3550.0,0.1984
3555.0,0.1984
3560.0,0.1984
3565.0,0.1984
3570.0,0.1984
3575.0,0.1984
3580.0,0.1984
3585.0,0.1984
3590.0,0.1984
3595.0,0.1984
3600.0,0.1984
3605.0,0.1984
3610.0,0.1984
3615.0,0.1984
3620.0,0.1984
3625.0,0.1984
3630.0,0.1984
3635.0,0.1984
3640.0,0.1984
3645.0,0.1984
3650.0,0.1984
3655.0,0.1984
3660.0,0.1984
3665.0,0.1984
3670.0,0.1984
3675.0,0.1984
3680.0,0.1984
3685.0,0.1984
3690.0,0.1984
3695.0,0.1984
3700.0,0.1984
3705.0,0.1984
3710.0,0.1984
3715.0,0.1984
3720.0,0.1984
3725.0,0.1984
3730.0,0.1984
3735.0,0.1984
3740.0,0.1984
3745.0,0.1984
3750.0,0.1984
3755.0,0.1984
3760.0,0.1984
3765.0,0.1984
3770.0,0.1984
3775.0,0.1984
3780.0,0.1984
3785.0,0.1984
3790.0,0.1984
3795.0,0.1984
3800.0,0.1984
3805.0,0.1984
3810.0,0.1984
3815.0,0.1984
3820.0,0.1984
3825.0,0.1984
3830.0,0.1984
3835.0,0.1984
3840.0,0.1984
3845.0,0.1984
3850.0,0.1984
3855.0,0.1984
3860.0,0.1984
3865.0,0.1984
3870.0,0.1984
3875.0,0.1984
3880.0,0.1984
3885.0,0.1984
3890.0,0.1984
3895.0,0.1984
3900.0,0.1984
3905.0,0.1984
3910.0,0.1984
3915.0,0.1984
3920.0,0.1984
3925.0,0.1984
3930.0,0.1984
3935.0,0.1984
3940.0,0.1984
3945.0,0.1984
3950.0,0.1984
3955.0,0.1984
3960.0,0.1984
3965.0,0.1984
3970.0,0.1984
3975.0,0.1984
3980.0,0.1984
3985.0,0.1984
3990.0,0.1984
3995.0,0.1984
4000.0,0.1984
