interpolation:linear
wavelength,value
280.0,2.458e-23
280.5,8.556e-22
281.0,4.6660000000000004e-21
281.5,1.567e-19
282.0,1.287e-18
282.5,4.753e-18
283.0,1.381e-17
283.5,2.193e-17
284.0,3.533e-16
284.5,1.033e-15
285.0,7.432e-16
285.5,3.953e-15
286.0,1.616e-14
286.5,7.526e-14
287.0,2.2e-13
287.5,8.694e-13
288.0,8.582e-12
288.5,1.933e-11
289.0,4.427e-11
289.5,1.216e-10
290.0,3.198e-10
290.5,6.284e-10
291.0,1.305e-09
291.5,3.641e-09
292.0,6.941e-09
292.5,9.263e-09
293.0,1.883e-08
293.5,4.329e-08
294.0,6.476e-08
294.5,1.301e-08
295.0,2.185e-08
295.5,3.384e-08
296.0,5.924e-08
296.5,7.53e-08
297.0,9.421e-08
297.5,2.248e-07
298.0,3.205e-07
298.5,2.983e-07
299.0,6.097e-07
299.5,8.853e-07
300.0,9.032e-07
300.5,1.211e-06
301.0,1.935e-06
301.5,2.756e-06
302.0,2.226e-06
302.5,2.905e-06
303.0,5.231e-06
303.5,6.575e-06
304.0,6.145e-06
304.5,9.147e-06
305.0,1.418e-05
305.5,1.669e-05
306.0,1.637e-05
306.5,2.092e-05
307.0,3.324e-05
307.5,4.794e-05
308.0,5.138e-05
308.5,6.357e-05
309.0,5.738e-05
309.5,6.452e-05
310.0,6.539e-05
310.5,0.0001067
311.0,0.0001363
311.5,0.0001328
312.0,0.0001409
312.5,0.0001805
313.0,0.0002018
313.5,0.0001906
314.0,0.0002564
314.5,0.0002586
315.0,0.0003514
315.5,0.0002701
316.0,0.0002733
316.5,0.0004504
317.0,0.0005578
317.5,0.0005579
318.0,0.000479
318.5,0.0007199
319.0,0.0009441
319.5,0.000656
320.0,0.0007743
320.5,0.001185
321.0,0.001276
321.5,0.001247
322.0,0.001083
322.5,0.0009522
323.0,0.001083
323.5,0.002711
324.0,0.003293
324.5,0.003018
325.0,0.001395
325.5,0.002006
326.0,0.004674
326.5,0.005315
327.0,0.005052
327.5,0.004597
328.0,0.003439
328.5,0.004456
329.0,0.006412
329.5,0.007726
330.0,0.007425
330.5,0.005117
331.0,0.004997
331.5,0.005606
332.0,0.007138
332.5,0.007589
333.0,0.007259
333.5,0.005828
334.0,0.00585
334.5,0.007736
335.0,0.007847
335.5,0.009767
336.0,0.006757
336.5,0.007151
337.0,0.005545
337.5,0.006753
338.0,0.007359
338.5,0.009182
339.0,0.00916
339.5,0.008767
340.0,0.009556
340.5,0.008707
341.0,0.009095
341.5,0.008471
342.0,0.01016
342.5,0.009547
343.0,0.01041
343.5,0.009743
344.0,0.006716
344.5,0.007193
345.0,0.009681
345.5,0.009955
346.0,0.008501
346.5,0.009656
347.0,0.01029
347.5,0.008299
348.0,0.00955
348.5,0.009598
349.0,0.008927
349.5,0.00883
350.0,0.01093
350.5,0.01153
351.0,0.01026
351.5,0.009855
352.0,0.01066
352.5,0.008372
353.0,0.01058
353.5,0.01135
354.0,0.0118
354.5,0.01197
355.0,0.01191
355.5,0.01078
356.0,0.01129
356.5,0.009646
357.0,0.007969
357.5,0.009763
358.0,0.007745
358.5,0.006623
359.0,0.009256
359.5,0.01176
360.0,0.01248
360.5,0.009992
361.0,0.009122
361.5,0.01051
362.0,0.009099
362.5,0.0126
363.0,0.01132
363.5,0.01043
364.0,0.01276
364.5,0.0109
365.0,0.0111
365.5,0.01394
366.0,0.01478
366.5,0.01389
367.0,0.01354
367.5,0.01405
368.0,0.01229
368.5,0.0124
369.0,0.0134
369.5,0.01429
370.0,0.01524
370.5,0.01183
371.0,0.01264
371.5,0.01582
372.0,0.01051
372.5,0.0126
373.0,0.01282
373.5,0.008341
374.0,0.01212
374.5,0.01004
375.0,0.009763
375.5,0.01458
376.0,0.01209
376.5,0.01253
377.0,0.01327
377.5,0.01553
378.0,0.01684
378.5,0.01592
379.0,0.01314
379.5,0.012
380.0,0.01248
380.5,0.01512
381.0,0.01516
381.5,0.01202
382.0,0.01067
382.5,0.009101
383.0,0.008427
383.5,0.008119
384.0,0.008958
384.5,0.01318
385.0,0.01307
385.5,0.01218
386.0,0.01043
386.5,0.0137
387.0,0.01139
387.5,0.01279
388.0,0.01182
388.5,0.01168
389.0,0.01261
389.5,0.01528
390.0,0.01534
390.5,0.01412
391.0,0.01662
391.5,0.01696
392.0,0.01428
392.5,0.01279
393.0,0.007118
393.5,0.005175
394.0,0.01053
394.5,0.01339
395.0,0.01635
395.5,0.01661
396.0,0.0144
396.5,0.008421
397.0,0.006322
397.5,0.01286
398.0,0.01801
398.5,0.01862
399.0,0.02017
399.5,0.02011
400.0,0.02088
401.0,0.02062
402.0,0.02176
403.0,0.02067
404.0,0.02036
405.0,0.02036
406.0,0.02003
407.0,0.0197
408.0,0.02046
409.0,0.02189
410.0,0.01913
411.0,0.02072
412.0,0.02227
413.0,0.02173
414.0,0.02199
415.0,0.02204
416.0,0.02241
417.0,0.02185
418.0,0.02145
419.0,0.02174
420.0,0.02164
421.0,0.02263
422.0,0.02149
423.0,0.02096
424.0,0.02215
425.0,0.02209
426.0,0.02151
427.0,0.02112
428.0,0.02059
429.0,0.01951
430.0,0.01707
431.0,0.0169
432.0,0.02179
433.0,0.02189
434.0,0.02032
435.0,0.02123
436.0,0.02392
437.0,0.02357
438.0,0.02143
439.0,0.0221
440.0,0.02276
441.0,0.02352
442.0,0.02517
443.0,0.0245
444.0,0.02505
445.0,0.02454
446.0,0.02345
447.0,0.02536
448.0,0.02572
449.0,0.02576
450.0,0.02641
451.0,0.02736
452.0,0.02636
453.0,0.02479
454.0,0.02588
455.0,0.02597
456.0,0.02652
457.0,0.02686
458.0,0.02582
459.0,0.02556
460.0,0.02551
461.0,0.02601
462.0,0.02619
463.0,0.02605
464.0,0.02568
465.0,0.02542
466.0,0.02568
467.0,0.02517
468.0,0.02538
469.0,0.02541
470.0,0.02454
471.0,0.02449
472.0,0.0258
473.0,0.02545
474.0,0.02544
475.0,0.02556
476.0,0.02465
477.0,0.02456
478.0,0.02507
479.0,0.02472
480.0,0.02458
481.0,0.02488
482.0,0.02493
483.0,0.02462
484.0,0.02415
485.0,0.02308
486.0,0.02023
487.0,0.02122
488.0,0.02324
489.0,0.02323
490.0,0.02434
491.0,0.02383
492.0,0.02245
493.0,0.02315
494.0,0.02335
495.0,0.0235
496.0,0.02356
497.0,0.02378
498.0,0.0225
499.0,0.02259
500.0,0.02173
501.0,0.02114
502.0,0.02063
503.0,0.02127
504.0,0.02058
505.0,0.02122
506.0,0.02186
507.0,0.0208
508.0,0.02018
509.0,0.02079
510.0,0.0207
511.0,0.02123
512.0,0.02142
513.0,0.0202
514.0,0.01996
515.0,0.01967
516.0,0.01954
517.0,0.0173
518.0,0.01812
519.0,0.01893
520.0,0.01953
521.0,0.01961
522.0,0.0195
523.0,0.01905
524.0,0.01957
525.0,0.01962
526.0,0.01858
527.0,0.01735
528.0,0.01818
529.0,0.01901
530.0,0.0186
531.0,0.01874
532.0,0.018
533.0,0.0174
534.0,0.01787
535.0,0.01824
536.0,0.01838
537.0,0.01763
538.0,0.01789
539.0,0.01767
540.0,0.01686
541.0,0.01688
542.0,0.0173
543.0,0.01701
544.0,0.01721
545.0,0.01707
546.0,0.01707
547.0,0.01699
548.0,0.01672
549.0,0.01671
550.0,0.01684
551.0,0.01657
552.0,0.01662
553.0,0.01625
554.0,0.01655
555.0,0.01649
556.0,0.01618
557.0,0.01557
558.0,0.01533
559.0,0.01492
560.0,0.01498
561.0,0.01504
562.0,0.0148
563.0,0.01508
564.0,0.01457
565.0,0.01435
566.0,0.01406
567.0,0.01423
568.0,0.01401
569.0,0.01359
570.0,0.01351
571.0,0.01335
572.0,0.01358
573.0,0.01367
574.0,0.01358
575.0,0.01329
576.0,0.01316
577.0,0.0133
578.0,0.0131
579.0,0.01317
580.0,0.01343
581.0,0.01352
582.0,0.01379
583.0,0.01382
584.0,0.01394
585.0,0.01358
586.0,0.01328
587.0,0.01354
588.0,0.01316
589.0,0.01159
590.0,0.01207
591.0,0.01273
592.0,0.01248
593.0,0.01259
594.0,0.01241
595.0,0.01199
596.0,0.01241
597.0,0.01216
598.0,0.01204
599.0,0.01196
600.0,0.01191
601.0,0.01176
602.0,0.01164
603.0,0.01181
604.0,0.012
605.0,0.01194
606.0,0.0119
607.0,0.01204
608.0,0.01194
609.0,0.01199
610.0,0.01194
611.0,0.01204
612.0,0.01204
613.0,0.01192
614.0,0.01179
615.0,0.01207
616.0,0.01169
617.0,0.01169
618.0,0.01215
619.0,0.01204
620.0,0.01212
621.0,0.01213
622.0,0.01199
623.0,0.0118
624.0,0.01159
625.0,0.01156
626.0,0.01173
627.0,0.01185
628.0,0.01096
629.0,0.01153
630.0,0.01126
631.0,0.01156
632.0,0.01143
633.0,0.0118
634.0,0.01171
635.0,0.01192
636.0,0.01178
637.0,0.01199
638.0,0.01213
639.0,0.01201
640.0,0.01192
641.0,0.01193
642.0,0.01189
643.0,0.01206
644.0,0.01204
645.0,0.01205
646.0,0.01175
647.0,0.01156
648.0,0.01159
649.0,0.01134
650.0,0.01145
651.0,0.01195
652.0,0.0114
653.0,0.01179
654.0,0.01166
655.0,0.01119
656.0,0.009931
657.0,0.0102
658.0,0.01145
659.0,0.01154
660.0,0.01158
661.0,0.01167
662.0,0.0117
663.0,0.01147
664.0,0.0116
665.0,0.01161
666.0,0.01162
667.0,0.01162
668.0,0.01163
669.0,0.01181
670.0,0.01175
671.0,0.01175
672.0,0.01165
673.0,0.01182
674.0,0.01177
675.0,0.01166
676.0,0.01174
677.0,0.01161
678.0,0.01164
679.0,0.01144
680.0,0.01152
681.0,0.01143
682.0,0.01139
683.0,0.01135
684.0,0.01127
685.0,0.01135
686.0,0.01126
687.0,0.007258
688.0,0.008462
689.0,0.008484
690.0,0.008893
691.0,0.009378
692.0,0.009764
693.0,0.009691
694.0,0.009638
695.0,0.01009
696.0,0.0101
697.0,0.01082
698.0,0.01062
699.0,0.01028
700.0,0.01013
701.0,0.009978
702.0,0.01004
703.0,0.01007
704.0,0.0104
705.0,0.01038
706.0,0.01035
707.0,0.01034
708.0,0.01034
709.0,0.01035
710.0,0.01029
711.0,0.01026
712.0,0.01023
713.0,0.01006
714.0,0.01008
715.0,0.009699
716.0,0.009654
717.0,0.008186
718.0,0.007511
719.0,0.006867
720.0,0.007159
721.0,0.007936
722.0,0.009123
723.0,0.008446
724.0,0.007555
725.0,0.007403
726.0,0.007714
727.0,0.007855
728.0,0.00731
729.0,0.007601
730.0,0.008002
731.0,0.007624
732.0,0.008188
733.0,0.00869
734.0,0.008899
735.0,0.008674
736.0,0.008606
737.0,0.008622
738.0,0.008802
739.0,0.008597
740.0,0.008812
741.0,0.008702
742.0,0.008692
743.0,0.008876
744.0,0.008821
745.0,0.008797
746.0,0.008802
747.0,0.008791
748.0,0.008742
749.0,0.008617
750.0,0.008591
751.0,0.008486
752.0,0.008507
753.0,0.008533
754.0,0.008532
755.0,0.008461
756.0,0.008435
757.0,0.008421
758.0,0.008286
759.0,0.008014
760.0,0.001345
761.0,0.0007175
762.0,0.003941
763.0,0.002006
764.0,0.002966
765.0,0.003898
766.0,0.004734
767.0,0.00594
768.0,0.006929
769.0,0.007109
770.0,0.007423
771.0,0.007512
772.0,0.007514
773.0,0.007534
774.0,0.007463
775.0,0.00737
776.0,0.007423
777.0,0.007288
778.0,0.007207
779.0,0.007181
780.0,0.007116
781.0,0.007101
782.0,0.00713
783.0,0.006992
784.0,0.007011
785.0,0.006941
786.0,0.006995
787.0,0.006808
788.0,0.006695
789.0,0.00667
790.0,0.006433
791.0,0.006505
792.0,0.006446
793.0,0.006318
794.0,0.006458
795.0,0.006532
796.0,0.006233
797.0,0.006228
798.0,0.006449
799.0,0.006372
800.0,0.006209
801.0,0.006155
802.0,0.006108
803.0,0.006019
804.0,0.006019
805.0,0.005996
806.0,0.006179
807.0,0.006069
808.0,0.006038
809.0,0.005861
810.0,0.005781
811.0,0.005712
812.0,0.005493
813.0,0.005344
814.0,0.004627
815.0,0.004581
816.0,0.004249
817.0,0.004305
818.0,0.004128
819.0,0.004611
820.0,0.004349
821.0,0.005125
822.0,0.00494
823.0,0.003275
824.0,0.00475
825.0,0.005018
826.0,0.004751
827.0,0.005045
828.0,0.004183
829.0,0.004707
830.0,0.00463
831.0,0.004624
832.0,0.004455
833.0,0.004746
834.0,0.004553
835.0,0.005048
836.0,0.004768
837.0,0.005019
838.0,0.00482
839.0,0.004911
840.0,0.00501
841.0,0.004901
842.0,0.004911
843.0,0.004921
844.0,0.004818
845.0,0.004971
846.0,0.004938
847.0,0.004829
848.0,0.004762
849.0,0.004604
850.0,0.004385
851.0,0.004602
852.0,0.004556
853.0,0.004372
854.0,0.003753
855.0,0.004119
856.0,0.004484
857.0,0.004578
858.0,0.004526
859.0,0.004524
860.0,0.004522
861.0,0.004484
862.0,0.004545
863.0,0.00464
864.0,0.004396
865.0,0.004346
866.0,0.003895
867.0,0.004052
868.0,0.004395
869.0,0.00429
870.0,0.004398
871.0,0.004322
872.0,0.004292
873.0,0.004268
874.0,0.004201
875.0,0.0041
876.0,0.004125
877.0,0.004151
878.0,0.004178
879.0,0.004097
880.0,0.003992
881.0,0.00391
882.0,0.003974
883.0,0.003976
884.0,0.003939
885.0,0.003948
886.0,0.00373
887.0,0.003771
888.0,0.003801
889.0,0.003845
890.0,0.003779
891.0,0.003769
892.0,0.003616
893.0,0.003476
894.0,0.003299
895.0,0.003068
896.0,0.002864
897.0,0.002432
898.0,0.002649
899.0,0.001983
900.0,0.002695
901.0,0.002067
902.0,0.002423
903.0,0.002444
904.0,0.003136
905.0,0.003007
906.0,0.002796
907.0,0.002225
908.0,0.002275
909.0,0.002456
910.0,0.002143
911.0,0.002298
912.0,0.002406
913.0,0.002153
914.0,0.002142
915.0,0.002296
916.0,0.001941
917.0,0.002467
918.0,0.001971
919.0,0.002498
920.0,0.002548
921.0,0.002634
922.0,0.002324
923.0,0.002528
924.0,0.002357
925.0,0.002292
926.0,0.002309
927.0,0.002586
928.0,0.001851
929.0,0.001679
930.0,0.001308
931.0,0.001235
932.0,0.0008836
933.0,0.0007144
934.0,0.0003877
935.0,0.0007262
936.0,0.0004499
937.0,0.0004537
938.0,0.0005562
939.0,0.001157
940.0,0.001388
941.0,0.00104
942.0,0.0012
943.0,0.0007837
944.0,0.0008238
945.0,0.001055
946.0,0.0005323
947.0,0.001052
948.0,0.0007701
949.0,0.001404
950.0,0.0003843
951.0,0.001374
952.0,0.0007315
953.0,0.0009443
954.0,0.001157
955.0,0.0009495
956.0,0.0009207
957.0,0.0007192
958.0,0.001301
959.0,0.001024
960.0,0.001145
961.0,0.001285
962.0,0.001211
963.0,0.001399
964.0,0.001274
965.0,0.00138
966.0,0.001379
967.0,0.001369
968.0,0.00189
969.0,0.001942
970.0,0.001782
971.0,0.002054
972.0,0.001953
973.0,0.001661
974.0,0.00157
975.0,0.001633
976.0,0.001534
977.0,0.001777
978.0,0.001658
979.0,0.00174
980.0,0.001628
981.0,0.001973
982.0,0.00187
983.0,0.001781
984.0,0.002038
985.0,0.001837
986.0,0.002084
987.0,0.002009
988.0,0.002005
989.0,0.002066
990.0,0.001966
991.0,0.002046
992.0,0.002055
993.0,0.00198
994.0,0.002045
995.0,0.002041
996.0,0.002021
997.0,0.00202
998.0,0.002002
999.0,0.00199
1000.0,0.001965
1001.0,0.001987
1002.0,0.001898
1003.0,0.001938
1004.0,0.001874
1005.0,0.001809
1006.0,0.001871
1007.0,0.001904
1008.0,0.001883
1009.0,0.001862
1010.0,0.001846
1011.0,0.001866
1012.0,0.001841
1013.0,0.001851
1014.0,0.001831
1015.0,0.001812
1016.0,0.001797
1017.0,0.001793
1018.0,0.001784
1019.0,0.001729
1020.0,0.00176
1021.0,0.001753
1022.0,0.00173
1023.0,0.001742
1024.0,0.001704
1025.0,0.00173
1026.0,0.001713
1027.0,0.001705
1028.0,0.001695
1029.0,0.001666
1030.0,0.001675
1031.0,0.001662
1032.0,0.001651
1033.0,0.001621
1034.0,0.001615
1035.0,0.001614
1036.0,0.001615
1037.0,0.001584
1038.0,0.001585
1039.0,0.001577
1040.0,0.001565
1041.0,0.001564
1042.0,0.001548
1043.0,0.001537
1044.0,0.001535
1045.0,0.001508
1046.0,0.001485
1047.0,0.001492
1048.0,0.001494
1049.0,0.001483
1050.0,0.00147
1051.0,0.001462
1052.0,0.00145
1053.0,0.001432
1054.0,0.001428
1055.0,0.001423
1056.0,0.001411
1057.0,0.0014
1058.0,0.00136
1059.0,0.001355
1060.0,0.001347
1061.0,0.00134
1062.0,0.001341
1063.0,0.001322
1064.0,0.001333
1065.0,0.001315
1066.0,0.001287
1067.0,0.001299
1068.0,0.001264
1069.0,0.001223
1070.0,0.00126
1071.0,0.00128
1072.0,0.001257
1073.0,0.001235
1074.0,0.001269
1075.0,0.001188
1076.0,0.00126
1077.0,0.001226
1078.0,0.001192
1079.0,0.00123
1080.0,0.001192
1081.0,0.001143
1082.0,0.001171
1083.0,0.001173
1084.0,0.001127
1085.0,0.001176
1086.0,0.001054
1087.0,0.001093
1088.0,0.001151
1089.0,0.001096
1090.0,0.001064
1091.0,0.001129
1092.0,0.001125
1093.0,0.0009242
1094.0,0.001017
1095.0,0.0009549
1096.0,0.000906
1097.0,0.001081
1098.0,0.0008853
1099.0,0.0009193
1100.0,0.0008442
1101.0,0.0008562
1102.0,0.0008105
1103.0,0.0007954
1104.0,0.0007964
1105.0,0.0008741
1106.0,0.000653
1107.0,0.0008237
1108.0,0.0006851
1109.0,0.0006843
1110.0,0.0008011
1111.0,0.000533
1112.0,0.0006733
1113.0,0.0004204
1114.0,0.0004685
1115.0,0.0003868
1116.0,0.0003058
1117.0,0.00011
1118.0,0.0003311
1119.0,0.0001621
1120.0,0.0002033
1121.0,0.0002699
1122.0,0.0001118
1123.0,0.0001819
1124.0,0.000153
1125.0,0.0001993
1126.0,6.776e-05
1127.0,0.0002235
1128.0,0.0001317
1129.0,0.0001395
1130.0,9.09e-05
1131.0,0.0004217
1132.0,0.000329
1133.0,0.0002059
1134.0,5.13e-05
1135.0,1.922e-05
1136.0,0.0001693
1137.0,0.0004053
1138.0,0.0002842
1139.0,0.0004262
1140.0,0.0003534
1141.0,0.0002674
1142.0,0.0003073
1143.0,0.0004364
1144.0,0.0001502
1145.0,0.0001907
1146.0,0.000205
1147.0,7.051e-05
1148.0,0.0003714
1149.0,0.0002944
1150.0,0.0001585
1151.0,0.0002699
1152.0,0.0003324
1153.0,0.0003239
1154.0,0.0001792
1155.0,0.0004214
1156.0,0.0003776
1157.0,0.0004239
1158.0,0.0004179
1159.0,0.0004501
1160.0,0.0003829
1161.0,0.0004742
1162.0,0.0004755
1163.0,0.0006497
1164.0,0.0005521
1165.0,0.000515
1166.0,0.0005139
1167.0,0.0005589
1168.0,0.0005639
1169.0,0.0005776
1170.0,0.000631
1171.0,0.0006097
1172.0,0.0006264
1173.0,0.0006213
1174.0,0.0004346
1175.0,0.0006075
1176.0,0.0006788
1177.0,0.0006408
1178.0,0.0004702
1179.0,0.0006756
1180.0,0.0005929
1181.0,0.000606
1182.0,0.0004081
1183.0,0.0005951
1184.0,0.0005545
1185.0,0.0005292
1186.0,0.0006358
1187.0,0.0005969
1188.0,0.0004066
1189.0,0.0005531
1190.0,0.0006151
1191.0,0.0005739
1192.0,0.0006211
1193.0,0.000592
1194.0,0.000608
1195.0,0.000567
1196.0,0.0005409
1197.0,0.0006038
1198.0,0.00055
1199.0,0.0004549
1200.0,0.0005687
1201.0,0.0005411
1202.0,0.0005431
1203.0,0.0005314
1204.0,0.0004642
1205.0,0.0005548
1206.0,0.0006171
1207.0,0.0005307
1208.0,0.0005243
1209.0,0.0005331
1210.0,0.0005592
1211.0,0.0005269
1212.0,0.0005102
1213.0,0.0005786
1214.0,0.0005216
1215.0,0.0005089
1216.0,0.000574
1217.0,0.000554
1218.0,0.0005656
1219.0,0.0005549
1220.0,0.0005622
1221.0,0.0005698
1222.0,0.0005505
1223.0,0.0005427
1224.0,0.0005346
1225.0,0.000556
1226.0,0.0005621
1227.0,0.0005074
1228.0,0.0005643
1229.0,0.0005562
1230.0,0.0005439
1231.0,0.0005641
1232.0,0.0005589
1233.0,0.0005277
1234.0,0.0005612
1235.0,0.0005535
1236.0,0.0005577
1237.0,0.0005438
1238.0,0.0005524
1239.0,0.0005436
1240.0,0.0005447
1241.0,0.0005374
1242.0,0.0005371
1243.0,0.0005313
1244.0,0.0005321
1245.0,0.0005335
1246.0,0.000529
1247.0,0.0005241
1248.0,0.0005206
1249.0,0.000522
1250.0,0.000516
1251.0,0.0005056
1252.0,0.000507
1253.0,0.0004964
1254.0,0.0004871
1255.0,0.0005007
1256.0,0.0004768
1257.0,0.0004712
1258.0,0.0004845
1259.0,0.0004552
1260.0,0.0004573
1261.0,0.0004223
1262.0,0.0004057
1263.0,0.0004052
1264.0,0.0003695
1265.0,0.0004001
1266.0,0.0003815
1267.0,0.0003886
1268.0,0.0003653
1269.0,0.0002255
1270.0,0.0003829
1271.0,0.0004092
1272.0,0.0004096
1273.0,0.0004033
1274.0,0.0004047
1275.0,0.0004102
1276.0,0.0004147
1277.0,0.0004188
1278.0,0.0004291
1279.0,0.0004246
1280.0,0.0004183
1281.0,0.0004004
1282.0,0.000388
1283.0,0.0004157
1284.0,0.0004245
1285.0,0.0004268
1286.0,0.0004327
1287.0,0.0004221
1288.0,0.000422
1289.0,0.0004001
1290.0,0.0004156
1291.0,0.0004217
1292.0,0.0003843
1293.0,0.000409
1294.0,0.0004038
1295.0,0.0003952
1296.0,0.000373
1297.0,0.0003498
1298.0,0.0003804
1299.0,0.0004012
1300.0,0.0003276
1301.0,0.0003363
1302.0,0.0003748
1303.0,0.0003224
1304.0,0.0002685
1305.0,0.0003621
1306.0,0.0003586
1307.0,0.000273
1308.0,0.0003167
1309.0,0.0003511
1310.0,0.0002653
1311.0,0.0003011
1312.0,0.0002911
1313.0,0.000282
1314.0,0.0002493
1315.0,0.0002453
1316.0,0.0002905
1317.0,0.0002744
1318.0,0.0002989
1319.0,0.0002282
1320.0,0.0002198
1321.0,0.0002572
1322.0,0.0002574
1323.0,0.0001919
1324.0,0.0002206
1325.0,0.0002758
1326.0,0.0002349
1327.0,0.0002227
1328.0,0.0001905
1329.0,0.0001424
1330.0,0.0001849
1331.0,0.0001111
1332.0,0.0001144
1333.0,0.0001589
1334.0,0.0001343
1335.0,0.0001842
1336.0,0.0001451
1337.0,0.000128
1338.0,0.0001381
1339.0,0.000137
1340.0,0.0001329
1341.0,0.0001293
1342.0,0.0001355
1343.0,9.127e-05
1344.0,5.45e-05
1345.0,7.84e-05
1346.0,3.867e-05
1347.0,3.918e-05
1348.0,2.526e-06
1349.0,9.062e-06
1350.0,9.394e-06
1351.0,2.271e-06
1352.0,6.109e-07
1353.0,3.109e-08
1354.0,1.069e-07
1355.0,8.606e-10
1356.0,1.506e-08
1357.0,2.288e-08
1358.0,1.01e-09
1359.0,1.273e-10
1360.0,4.601e-10
1361.0,5.147e-13
1362.0,1.408e-15
1363.0,6.188e-10
1364.0,2.555e-10
1365.0,4.917e-16
1366.0,2.682e-09
1367.0,1.095e-09
1368.0,3.797e-18
1369.0,9.416e-11
1370.0,4.638e-11
1371.0,2.629e-12
1372.0,5.939e-10
1373.0,1.197e-08
1374.0,5.55e-08
1375.0,1.007e-07
1376.0,9.029e-08
1377.0,4.124e-08
1378.0,4.033e-07
1379.0,1.723e-08
1380.0,2.477e-08
1381.0,6.452e-10
1382.0,5.208e-10
1383.0,7.787e-12
1384.0,1.021e-10
1385.0,4.883e-10
1386.0,4.593e-10
1387.0,5.555e-08
1388.0,1.093e-09
1389.0,1.876e-07
1390.0,1.61e-07
1391.0,1.071e-07
1392.0,6.942e-09
1393.0,3.678e-08
1394.0,1.896e-08
1395.0,1.389e-10
1396.0,6.714e-13
1397.0,1.448e-08
1398.0,4.282e-07
1399.0,2.709e-07
1400.0,2.871e-13
1401.0,1.191e-12
1402.0,7.505e-07
1403.0,9.401e-07
1404.0,2.856e-07
1405.0,6.581e-11
1406.0,7.383e-07
1407.0,6.507e-08
1408.0,6.007e-07
1409.0,2.003e-07
1410.0,1.603e-07
1411.0,8.086e-07
1412.0,1.091e-06
1413.0,1.136e-05
1414.0,1.252e-07
1415.0,5.979e-08
1416.0,1.877e-05
1417.0,5.542e-06
1418.0,6.276e-06
1419.0,9.659e-07
1420.0,3.814e-06
1421.0,4.115e-06
1422.0,2.413e-05
1423.0,4.628e-06
1424.0,8.688e-06
1425.0,1.269e-05
1426.0,1.452e-05
1427.0,2.702e-05
1428.0,1.891e-06
1429.0,1.99e-05
1430.0,3.433e-05
1431.0,3.775e-05
1432.0,1.47e-06
1433.0,2.368e-05
1434.0,1.192e-05
1435.0,1.155e-05
1436.0,2.274e-05
1437.0,1.739e-05
1438.0,7.177e-06
1439.0,3.091e-05
1440.0,2.308e-05
1441.0,1.726e-05
1442.0,1.912e-05
1443.0,2.439e-05
1444.0,3.396e-05
1445.0,2.609e-05
1446.0,1.157e-05
1447.0,1.824e-05
1448.0,6.462e-05
1449.0,5.553e-05
1450.0,1.344e-05
1451.0,5.293e-06
1452.0,3.269e-05
1453.0,4.308e-05
1454.0,7.577e-05
1455.0,3.488e-05
1456.0,4.65e-05
1457.0,6.337e-05
1458.0,7.57e-05
1459.0,8.913e-05
1460.0,4.565e-05
1461.0,4.699e-05
1462.0,6.979e-05
1463.0,2.185e-05
1464.0,8.33e-05
1465.0,4.984e-05
1466.0,3.301e-05
1467.0,1.689e-05
1468.0,3.907e-05
1469.0,4.847e-05
1470.0,2.328e-05
1471.0,8.258e-06
1472.0,2.213e-05
1473.0,3.441e-05
1474.0,5.106e-05
1475.0,9.807e-05
1476.0,3.422e-05
1477.0,3.418e-05
1478.0,3.193e-05
1479.0,6.223e-05
1480.0,2.928e-05
1481.0,5.891e-05
1482.0,2.862e-05
1483.0,7.663e-05
1484.0,7.173e-05
1485.0,6.331e-05
1486.0,6.19e-05
1487.0,2.759e-05
1488.0,4.931e-05
1489.0,9.846e-05
1490.0,9.097e-05
1491.0,0.0001033
1492.0,8.393e-05
1493.0,9.285e-05
1494.0,0.0001054
1495.0,9.288e-05
1496.0,8.649e-05
1497.0,0.000121
1498.0,9.738e-05
1499.0,0.0001138
1500.0,0.0001335
1501.0,0.0001397
1502.0,0.0001172
1503.0,9.772e-05
1504.0,7.727e-05
1505.0,9.381e-05
1506.0,0.0001389
1507.0,0.0001331
1508.0,0.0001264
1509.0,9.443e-05
1510.0,0.0001437
1511.0,0.0001371
1512.0,0.0001374
1513.0,0.0001231
1514.0,0.0001144
1515.0,0.0001407
1516.0,0.0001336
1517.0,0.0001285
1518.0,0.000129
1519.0,0.0001245
1520.0,0.000135
1521.0,0.0001478
1522.0,0.0001375
1523.0,0.0001495
1524.0,0.0001428
1525.0,0.0001341
1526.0,0.0001357
1527.0,0.0001356
1528.0,0.0001462
1529.0,0.0001377
1530.0,0.0001333
1531.0,0.0001379
1532.0,0.0001455
1533.0,0.0001458
1534.0,0.000143
1535.0,0.000141
1536.0,0.0001437
1537.0,0.0001401
1538.0,0.000142
1539.0,0.0001388
1540.0,0.0001395
1541.0,0.0001399
1542.0,0.0001377
1543.0,0.0001404
1544.0,0.0001382
1545.0,0.000141
1546.0,0.0001376
1547.0,0.0001359
1548.0,0.0001356
1549.0,0.0001369
1550.0,0.0001353
1551.0,0.0001357
1552.0,0.0001342
1553.0,0.0001335
1554.0,0.0001318
1555.0,0.0001321
1556.0,0.0001315
1557.0,0.0001329
1558.0,0.0001318
1559.0,0.0001306
1560.0,0.0001311
1561.0,0.0001317
1562.0,0.0001295
1563.0,0.0001281
1564.0,0.0001282
1565.0,0.0001286
1566.0,0.0001263
1567.0,0.0001263
1568.0,0.0001246
1569.0,0.0001253
1570.0,0.000126
1571.0,0.0001265
1572.0,0.0001254
1573.0,0.000124
1574.0,0.0001191
1575.0,0.0001173
1576.0,0.0001147
1577.0,0.0001114
1578.0,0.0001164
1579.0,0.0001166
1580.0,0.0001175
1581.0,0.0001155
1582.0,0.000113
1583.0,0.0001131
1584.0,0.0001157
1585.0,0.0001169
1586.0,0.0001151
1587.0,0.0001129
1588.0,0.0001102
1589.0,0.0001066
1590.0,0.0001084
1591.0,0.0001109
1592.0,0.0001135
1593.0,0.0001154
1594.0,0.0001147
1595.0,0.0001131
1596.0,0.0001093
1597.0,0.0001114
1598.0,0.0001133
1599.0,0.0001118
1600.0,0.0001109
1601.0,0.0001089
1602.0,0.0001087
1603.0,0.00011
1604.0,0.0001088
1605.0,0.0001086
1606.0,0.000107
1607.0,0.0001078
1608.0,0.0001069
1609.0,0.0001042
1610.0,0.0001017
1611.0,0.0001032
1612.0,0.0001044
1613.0,0.000104
1614.0,0.0001039
1615.0,0.0001014
1616.0,9.953e-05
1617.0,0.0001009
1618.0,0.0001027
1619.0,0.0001001
1620.0,9.827e-05
1621.0,9.902e-05
1622.0,0.0001003
1623.0,0.0001016
1624.0,9.991e-05
1625.0,9.922e-05
1626.0,9.919e-05
1627.0,9.984e-05
1628.0,9.91e-05
1629.0,9.822e-05
1630.0,9.727e-05
1631.0,9.601e-05
1632.0,9.587e-05
1633.0,9.173e-05
1634.0,9.475e-05
1635.0,9.195e-05
1636.0,9.175e-05
1637.0,9.091e-05
1638.0,8.354e-05
1639.0,8.848e-05
1640.0,8.244e-05
1641.0,8.709e-05
1642.0,8.913e-05
1643.0,8.118e-05
1644.0,8.893e-05
1645.0,8.427e-05
1646.0,8.086e-05
1647.0,8.956e-05
1648.0,8.025e-05
1649.0,8.621e-05
1650.0,8.687e-05
1651.0,7.76e-05
1652.0,8.525e-05
1653.0,8.641e-05
1654.0,7.921e-05
1655.0,8.579e-05
1656.0,8.31e-05
1657.0,8.399e-05
1658.0,8.586e-05
1659.0,8.471e-05
1660.0,8.523e-05
1661.0,8.465e-05
1662.0,8.118e-05
1663.0,8.413e-05
1664.0,8.298e-05
1665.0,7.593e-05
1666.0,6.034e-05
1667.0,7.491e-05
1668.0,7.943e-05
1669.0,7.997e-05
1670.0,8.158e-05
1671.0,7.856e-05
1672.0,7.792e-05
1673.0,7.967e-05
1674.0,7.676e-05
1675.0,7.572e-05
1676.0,7.665e-05
1677.0,7.572e-05
1678.0,7.261e-05
1679.0,7.561e-05
1680.0,7.207e-05
1681.0,6.864e-05
1682.0,7.369e-05
1683.0,7.516e-05
1684.0,6.681e-05
1685.0,7.557e-05
1686.0,7.515e-05
1687.0,7.075e-05
1688.0,7.404e-05
1689.0,7.323e-05
1690.0,7.245e-05
1691.0,6.437e-05
1692.0,7.154e-05
1693.0,7.43e-05
1694.0,7.004e-05
1695.0,7.279e-05
1696.0,7.296e-05
1697.0,5.879e-05
1698.0,7.144e-05
1699.0,7.051e-05
1700.0,6.774e-05
1702.0,6.919e-05
1705.0,6.587e-05
1710.0,6.157e-05
1715.0,6.128e-05
1720.0,6.015e-05
1725.0,5.45e-05
1730.0,5.384e-05
1735.0,4.946e-05
1740.0,4.958e-05
1745.0,4.623e-05
1750.0,4.815e-05
1755.0,4.394e-05
1760.0,4.507e-05
1765.0,3.623e-05
1770.0,3.816e-05
1775.0,3.012e-05
1780.0,2.54e-05
1785.0,1.88e-05
1790.0,2.156e-05
1795.0,1.047e-05
1800.0,7.202e-06
1805.0,2.86e-06
1810.0,1.856e-06
1815.0,5.372e-07
1820.0,1.344e-07
1825.0,1.754e-07
1830.0,4.275e-10
1835.0,6.473e-10
1840.0,3.777e-12
1845.0,4.039e-10
1850.0,1.823e-10
1855.0,1.743e-11
1860.0,9.986e-10
1865.0,1.392e-09
1870.0,7.618e-15
1875.0,1.376e-14
1880.0,7.33e-09
1885.0,3.906e-09
1890.0,2.143e-08
1895.0,1.243e-08
1900.0,5.314e-11
1905.0,3.62e-11
1910.0,1.753e-09
1915.0,1.708e-09
1920.0,4.48e-08
1925.0,1.053e-07
1930.0,6.079e-08
1935.0,4.634e-07
1940.0,4.601e-07
1945.0,1.895e-06
1950.0,3.685e-06
1955.0,3.287e-06
1960.0,5.778e-06
1965.0,8.392e-06
1970.0,1.175e-05
1975.0,1.322e-05
1980.0,1.315e-05
1985.0,1.406e-05
1990.0,1.452e-05
1995.0,1.52e-05
2000.0,1.602e-05
2005.0,1.325e-05
2010.0,1.94e-05
2015.0,1.472e-05
2020.0,1.578e-05
2025.0,1.727e-05
2030.0,1.558e-05
2035.0,1.718e-05
2040.0,1.608e-05
2045.0,1.647e-05
2050.0,1.679e-05
2055.0,1.576e-05
2060.0,1.506e-05
2065.0,1.526e-05
2070.0,1.488e-05
2075.0,1.531e-05
2080.0,1.479e-05
2085.0,1.456e-05
2090.0,1.462e-05
2095.0,1.4e-05
2100.0,1.281e-05
2105.0,1.385e-05
2110.0,1.304e-05
2115.0,1.337e-05
2120.0,1.229e-05
2125.0,1.245e-05
2130.0,1.258e-05
2135.0,1.258e-05
2140.0,1.258e-05
2145.0,1.233e-05
2150.0,1.125e-05
2155.0,1.114e-05
2160.0,1.096e-05
2165.0,9.87e-06
2170.0,1.05e-05
2175.0,1.006e-05
2180.0,1.031e-05
2185.0,9.043e-06
2190.0,9.771e-06
2195.0,9.566e-06
2200.0,8.13e-06
2205.0,8.624e-06
2210.0,9.491e-06
2215.0,8.881e-06
2220.0,9.015e-06
2225.0,8.624e-06
2230.0,8.596e-06
2235.0,8.272e-06
2240.0,8.099e-06
2245.0,7.637e-06
2250.0,7.822e-06
2255.0,7.124e-06
2260.0,6.945e-06
2265.0,7.118e-06
2270.0,6.571e-06
2275.0,6.407e-06
2280.0,6.726e-06
2285.0,6.179e-06
2290.0,6.133e-06
2295.0,5.91e-06
2300.0,5.529e-06
2305.0,5.535e-06
2310.0,6.134e-06
2315.0,5.346e-06
2320.0,4.623e-06
2325.0,5.187e-06
2330.0,5.112e-06
2335.0,5.208e-06
2340.0,3.941e-06
2345.0,4.424e-06
2350.0,3.461e-06
2355.0,4e-06
2360.0,4.223e-06
2365.0,4.16e-06
2370.0,2.375e-06
2375.0,3.576e-06
2380.0,3.4e-06
2385.0,2.388e-06
2390.0,2.831e-06
2395.0,3.102e-06
2400.0,3.378e-06
2405.0,2.53e-06
2410.0,2.515e-06
2415.0,1.988e-06
2420.0,1.912e-06
2425.0,2.395e-06
2430.0,3.264e-06
2435.0,1.008e-06
2440.0,3.137e-06
2445.0,1.415e-06
2450.0,8.891e-07
2455.0,1.692e-06
2460.0,2.272e-06
2465.0,1.589e-06
2470.0,1.05e-06
2475.0,1.017e-06
2480.0,4.754e-07
2485.0,3.096e-07
2490.0,1.78e-07
2495.0,1.54e-07
2500.0,3.821e-07
2505.0,7.768e-08
2510.0,1.142e-07
2515.0,2.419e-08
2520.0,1.36e-08
2525.0,1.551e-09
2530.0,1.08e-11
2535.0,2.388e-12
2540.0,5.666e-12
2545.0,4.394e-16
2550.0,1.782e-18
2555.0,8.551e-15
2560.0,2.566e-16
2565.0,5.745e-20
2570.0,1.711e-24
2575.0,1.082e-34
2580.0,1.128e-28
2585.0,2.358e-42
2590.0,1.472e-38
2595.0,2.863e-40
2600.0,2.357e-35
2605.0,2.605e-42
2610.0,8.967e-42
2615.0,1.4009999999999999e-45
2620.0,7.902e-36
2625.0,1.447e-35
2630.0,0.0
2635.0,7.535999999999999e-22
2640.0,1.6309999999999998e-22
2645.0,7.111e-25
2650.0,7.083000000000001e-26
2655.0,8.518e-35
2660.0,7.172000000000001e-32
2665.0,7.006e-45
2670.0,0.0
2675.0,3.5029999999999997e-44
2680.0,1.454e-30
2685.0,1.3890000000000001e-31
2690.0,5.198e-31
2695.0,2.039e-33
2700.0,5.94e-29
2705.0,1.6840000000000002e-26
2710.0,1.341e-31
2715.0,1.694e-29
2720.0,0.0
2725.0,3.793e-27
2730.0,1.106e-24
2735.0,1.261e-26
2740.0,2.278e-32
2745.0,2.937e-27
2750.0,1.646e-26
2755.0,2.648e-28
2760.0,3.968e-23
2765.0,1.862e-29
2770.0,9.151e-27
2775.0,1.13e-23
2780.0,5.2600000000000004e-21
2785.0,1.9750000000000003e-20
2790.0,4.503e-18
2795.0,9.906e-19
2800.0,3.162e-15
2805.0,5.913e-17
2810.0,2.371e-13
2815.0,7.072e-14
2820.0,8.641e-16
2825.0,7.585e-12
2830.0,1.648e-10
2835.0,2.27e-15
2840.0,4.858e-12
2845.0,1.681e-09
2850.0,2.91e-11
2855.0,1.162e-11
2860.0,6.043e-10
2865.0,4.456e-09
2870.0,1.13e-10
2875.0,1.085e-08
2880.0,6.835e-09
2885.0,1.126e-08
2890.0,4.786e-09
2895.0,8.158e-08
2900.0,2.274e-08
2905.0,2.632e-09
2910.0,8.322e-08
2915.0,3.532e-08
2920.0,8.764e-08
2925.0,3.124e-08
2930.0,1.891e-07
2935.0,2.085e-07
2940.0,4.668e-08
2945.0,4.008e-08
2950.0,1.618e-07
2955.0,7.204e-08
2960.0,1.429e-07
2965.0,2.42e-07
2970.0,9.482e-09
2975.0,2.402e-08
2980.0,3.737e-08
2985.0,2.199e-07
2990.0,3.33e-07
2995.0,1.265e-07
3000.0,2.404e-07
3005.0,8.184e-08
3010.0,2.104e-07
3015.0,1.632e-07
3020.0,1.475e-08
3025.0,2.248e-07
3030.0,1.771e-07
3035.0,6.734e-08
3040.0,5.263e-08
3045.0,1.13e-07
3050.0,2.562e-08
3055.0,6.268e-09
3060.0,1.759e-07
3065.0,7.448e-08
3070.0,4.185e-08
3075.0,1.64e-07
3080.0,9.526e-08
3085.0,4.207e-08
3090.0,5.721e-08
3095.0,1.407e-08
3100.0,1.143e-07
3105.0,2.142e-08
3110.0,1.793e-08
3115.0,5.381e-08
3120.0,2.636e-07
3125.0,7.744e-08
3130.0,1.538e-07
3135.0,3.081e-07
3140.0,8.194e-08
3145.0,8.035e-08
3150.0,1.695e-07
3155.0,1.427e-07
3160.0,2.366e-07
3165.0,3.714e-07
3170.0,3.288e-07
3175.0,2.31e-07
3180.0,2.726e-07
3185.0,1.908e-07
3190.0,9.999e-08
3195.0,5.551e-08
3200.0,7.835e-09
3205.0,5.118e-09
3210.0,2.132e-09
3215.0,8.668e-09
3220.0,3.043e-08
3225.0,3.5e-09
3230.0,5.812e-09
3235.0,1.629e-07
3240.0,7.406e-08
3245.0,1.406e-08
3250.0,5.186e-08
3255.0,2.221e-07
3260.0,2.218e-08
3265.0,4.802e-08
3270.0,2.261e-08
3275.0,1.365e-07
3280.0,5.796e-08
3285.0,2.51e-07
3290.0,1.888e-07
3295.0,2.324e-08
3300.0,3.453e-08
3305.0,7.929e-08
3310.0,7.529e-08
3315.0,1.091e-10
3320.0,6.877e-10
3325.0,6.324e-08
3330.0,9.605e-08
3335.0,1.858e-07
3340.0,6.849e-08
3345.0,6.652e-08
3350.0,1.657e-07
3355.0,6.729e-08
3360.0,1.033e-07
3365.0,1.456e-07
3370.0,7.053e-08
3375.0,1.709e-07
3380.0,9.282e-08
3385.0,1.471e-07
3390.0,1.932e-07
3395.0,1.873e-07
3400.0,2.528e-07
3405.0,7.735e-08
3410.0,1.358e-07
3415.0,1.32e-07
3420.0,2.633e-07
3425.0,1.885e-07
3430.0,1.59e-07
3435.0,2.26e-07
3440.0,1.447e-07
3445.0,2.152e-07
3450.0,2.1e-07
3455.0,1.498e-07
3460.0,2.386e-07
3465.0,1.766e-07
3470.0,2.304e-07
3475.0,1.997e-07
3480.0,2.044e-07
3485.0,2.222e-07
3490.0,1.853e-07
3495.0,2.229e-07
3500.0,2.151e-07
3505.0,2.122e-07
3510.0,2.144e-07
3515.0,2.033e-07
3520.0,2.155e-07
3525.0,1.999e-07
3530.0,1.93e-07
3535.0,1.577e-07
3540.0,1.49e-07
3545.0,1.574e-07
3550.0,1.771e-07
3555.0,1.484e-07
3560.0,1.806e-07
3565.0,1.797e-07
3570.0,1.354e-07
3575.0,1.396e-07
3580.0,1.676e-07
3585.0,1.461e-07
3590.0,1.524e-07
3595.0,1.556e-07
3600.0,1.66e-07
3605.0,1.652e-07
3610.0,1.495e-07
3615.0,1.497e-07
3620.0,1.866e-07
3625.0,1.587e-07
3630.0,1.543e-07
3635.0,1.588e-07
3640.0,1.794e-07
3645.0,1.605e-07
3650.0,1.524e-07
3655.0,1.666e-07
3660.0,1.651e-07
3665.0,1.511e-07
3670.0,1.136e-07
3675.0,6.458e-08
3680.0,1.174e-07
3685.0,1.348e-07
3690.0,1.388e-07
3695.0,1.452e-07
3700.0,1.577e-07
3705.0,1.544e-07
3710.0,1.309e-07
3715.0,1.286e-07
3720.0,1.471e-07
3725.0,1.509e-07
3730.0,1.279e-07
3735.0,1.153e-07
3740.0,1.185e-07
3745.0,1.403e-07
3750.0,1.255e-07
3755.0,1.205e-07
3760.0,1.179e-07
3765.0,1.129e-07
3770.0,1.214e-07
3775.0,1.194e-07
3780.0,1.27e-07
3785.0,1.144e-07
3790.0,9.908e-08
3795.0,1.147e-07
3800.0,1.3e-07
3805.0,1.205e-07
3810.0,1.045e-07
3815.0,9.688e-08
3820.0,1.243e-07
3825.0,1.21e-07
3830.0,1.225e-07
3835.0,9.37e-08
3840.0,1.121e-07
3845.0,1.082e-07
3850.0,1.085e-07
3855.0,1.029e-07
3860.0,9.461e-08
3865.0,9.499e-08
3870.0,8.466e-08
3875.0,7.586e-08
3880.0,7.267e-08
3885.0,7.523e-08
3890.0,7.61e-08
3895.0,8.404e-08
3900.0,8.975e-08
3905.0,8.903e-08
3910.0,7.828e-08
3915.0,7.578e-08
3920.0,7.535e-08
3925.0,7.362e-08
3930.0,7.609e-08
3935.0,7.94e-08
3940.0,8.017e-08
3945.0,8.141e-08
3950.0,8.249e-08
3955.0,8.314e-08
3960.0,8.364e-08
3965.0,8.406e-08
3970.0,8.265e-08
3975.0,7.984e-08
3980.0,7.823e-08
3985.0,7.822e-08
3990.0,7.672e-08
3995.0,7.452e-08
4000.0,7.099e-08
