interpolation:linear
wavelength,value
280.0,1.435e-20
280.5,2.576e-19
281.0,1.096e-18
281.5,1.937e-17
282.0,1.074e-16
282.5,3.179e-16
283.0,1.057e-15
283.5,1.689e-15
284.0,2.364e-14
284.5,6.001e-14
285.0,1.935e-13
285.5,1.217e-12
286.0,5.128e-12
286.5,2.544e-11
287.0,7.723e-11
287.5,3.286e-10
288.0,7.694e-10
288.5,2.604e-09
289.0,7.43e-09
289.5,2.35e-08
290.0,6.605e-08
290.5,1.338e-07
291.0,2.866e-07
291.5,8.353e-07
292.0,1.656e-06
292.5,2.12e-06
293.0,4.091e-06
293.5,8.809e-06
294.0,1.201e-05
294.5,3.107e-05
295.0,5.241e-05
295.5,8.194e-05
296.0,0.0001417
296.5,0.0001782
297.0,0.0002212
297.5,0.0005246
298.0,0.0007452
298.5,0.0006922
299.0,0.001413
299.5,0.002063
300.0,0.00211
300.5,0.002839
301.0,0.004586
301.5,0.006599
302.0,0.005346
302.5,0.009416
303.0,0.01486
303.5,0.01729
304.0,0.01548
304.5,0.0206
305.0,0.02681
305.5,0.02789
306.0,0.02593
306.5,0.03033
307.0,0.03963
307.5,0.0468
308.0,0.04826
308.5,0.05367
309.0,0.05273
309.5,0.05459
310.0,0.05221
310.5,0.0823
311.0,0.09916
311.5,0.09373
312.0,0.08644
312.5,0.09956
313.0,0.1046
313.5,0.1034
314.0,0.1213
314.5,0.09915
315.0,0.1278
315.5,0.1102
316.0,0.09008
316.5,0.1222
317.0,0.151
317.5,0.1585
318.0,0.1188
318.5,0.1374
319.0,0.157
319.5,0.1341
320.0,0.1624
320.5,0.1893
321.0,0.1599
321.5,0.1519
322.0,0.1691
322.5,0.1459
323.0,0.1399
323.5,0.1699
324.0,0.1963
324.5,0.2008
325.0,0.1712
325.5,0.2137
326.0,0.2639
326.5,0.2584
327.0,0.2578
327.5,0.2496
328.0,0.2262
328.5,0.23
329.0,0.2681
329.5,0.3007
330.0,0.3033
330.5,0.2455
331.0,0.2503
331.5,0.2499
332.0,0.2638
332.5,0.2575
333.0,0.2566
333.5,0.234
334.0,0.239
334.5,0.2703
335.0,0.2506
335.5,0.3037
336.0,0.2092
336.5,0.2344
337.0,0.1925
337.5,0.2386
338.0,0.2291
338.5,0.2725
339.0,0.2663
339.5,0.2562
340.0,0.2896
340.5,0.2594
341.0,0.2597
341.5,0.2342
342.0,0.2776
342.5,0.2577
343.0,0.2839
343.5,0.2674
344.0,0.1916
344.5,0.1999
345.0,0.2589
345.5,0.2614
346.0,0.2203
346.5,0.2476
347.0,0.266
347.5,0.2144
348.0,0.2415
348.5,0.2393
349.0,0.2205
349.5,0.2174
350.0,0.2673
350.5,0.2806
351.0,0.2501
351.5,0.2441
352.0,0.2592
352.5,0.2004
353.0,0.2506
353.5,0.2662
354.0,0.2747
354.5,0.2772
355.0,0.2751
355.5,0.2471
356.0,0.2571
356.5,0.2184
357.0,0.1795
357.5,0.2186
358.0,0.1723
358.5,0.1465
359.0,0.2039
359.5,0.2591
360.0,0.2731
360.5,0.217
361.0,0.1967
361.5,0.2253
362.0,0.1938
362.5,0.2669
363.0,0.2385
363.5,0.2186
364.0,0.266
364.5,0.2263
365.0,0.2293
365.5,0.2864
366.0,0.3019
366.5,0.2822
367.0,0.2735
367.5,0.2824
368.0,0.2459
368.5,0.247
369.0,0.2654
369.5,0.2815
370.0,0.2986
370.5,0.2306
371.0,0.2452
371.5,0.3053
372.0,0.2016
372.5,0.2406
373.0,0.2435
373.5,0.1577
374.0,0.2281
374.5,0.188
375.0,0.1818
375.5,0.2702
376.0,0.2229
376.5,0.2298
377.0,0.2422
377.5,0.282
378.0,0.3042
378.5,0.2861
379.0,0.2349
379.5,0.2134
380.0,0.2208
380.5,0.266
381.0,0.2652
381.5,0.2092
382.0,0.1848
382.5,0.1568
383.0,0.1444
383.5,0.1384
384.0,0.1519
384.5,0.2224
385.0,0.2195
385.5,0.2034
386.0,0.1734
386.5,0.2267
387.0,0.1874
387.5,0.2095
388.0,0.1925
388.5,0.1893
389.0,0.2034
389.5,0.2451
390.0,0.2448
390.5,0.2242
391.0,0.2626
391.5,0.2665
392.0,0.2234
392.5,0.199
393.0,0.1102
393.5,0.07975
394.0,0.1615
394.5,0.2044
395.0,0.2483
395.5,0.251
396.0,0.2166
396.5,0.126
397.0,0.09411
397.5,0.1905
398.0,0.2655
398.5,0.2731
399.0,0.2944
399.5,0.2921
400.0,0.3019
401.0,0.2964
402.0,0.3097
403.0,0.2914
404.0,0.2843
405.0,0.2817
406.0,0.2745
407.0,0.2675
408.0,0.2754
409.0,0.2922
410.0,0.2531
411.0,0.2717
412.0,0.2892
413.0,0.2795
414.0,0.2804
415.0,0.2786
416.0,0.2809
417.0,0.2714
418.0,0.264
419.0,0.265
420.0,0.2614
421.0,0.2709
422.0,0.2552
423.0,0.247
424.0,0.2588
425.0,0.256
426.0,0.2472
427.0,0.2405
428.0,0.2322
429.0,0.2181
430.0,0.1892
431.0,0.1858
432.0,0.2378
433.0,0.2369
434.0,0.218
435.0,0.2258
436.0,0.2523
437.0,0.2469
438.0,0.2231
439.0,0.2289
440.0,0.2342
441.0,0.2406
442.0,0.2558
443.0,0.2471
444.0,0.2503
445.0,0.2428
446.0,0.2297
447.0,0.2462
448.0,0.2478
449.0,0.2467
450.0,0.2514
451.0,0.2585
452.0,0.2469
453.0,0.2303
454.0,0.2385
455.0,0.238
456.0,0.2416
457.0,0.2436
458.0,0.2334
459.0,0.2304
460.0,0.2292
461.0,0.2326
462.0,0.2325
463.0,0.2292
464.0,0.2237
465.0,0.219
466.0,0.2193
467.0,0.2135
468.0,0.2141
469.0,0.2134
470.0,0.205
471.0,0.2033
472.0,0.2125
473.0,0.2081
474.0,0.2067
475.0,0.2069
476.0,0.1992
477.0,0.1982
478.0,0.2021
479.0,0.1992
480.0,0.1982
481.0,0.2001
482.0,0.1995
483.0,0.1955
484.0,0.19
485.0,0.1795
486.0,0.1557
487.0,0.1618
488.0,0.1761
489.0,0.1753
490.0,0.1831
491.0,0.1787
492.0,0.1674
493.0,0.1716
494.0,0.1719
495.0,0.1721
496.0,0.172
497.0,0.1734
498.0,0.1641
499.0,0.165
500.0,0.159
501.0,0.155
502.0,0.1517
503.0,0.1567
504.0,0.1517
505.0,0.156
506.0,0.1599
507.0,0.151
508.0,0.1451
509.0,0.1481
510.0,0.1462
511.0,0.1491
512.0,0.1496
513.0,0.1405
514.0,0.1386
515.0,0.1362
516.0,0.135
517.0,0.1191
518.0,0.1244
519.0,0.1295
520.0,0.1332
521.0,0.1336
522.0,0.1328
523.0,0.1295
524.0,0.1333
525.0,0.1341
526.0,0.1273
527.0,0.1191
528.0,0.1251
529.0,0.1311
530.0,0.1284
531.0,0.1295
532.0,0.1243
533.0,0.1198
534.0,0.1225
535.0,0.1244
536.0,0.1246
537.0,0.1189
538.0,0.1201
539.0,0.1184
540.0,0.1128
541.0,0.1128
542.0,0.1156
543.0,0.1136
544.0,0.115
545.0,0.114
546.0,0.1137
547.0,0.1129
548.0,0.1108
549.0,0.1104
550.0,0.111
551.0,0.1089
552.0,0.109
553.0,0.1063
554.0,0.1082
555.0,0.1077
556.0,0.1056
557.0,0.1016
558.0,0.1002
559.0,0.09772
560.0,0.09831
561.0,0.09894
562.0,0.09759
563.0,0.09964
564.0,0.09634
565.0,0.09494
566.0,0.09293
567.0,0.09409
568.0,0.09267
569.0,0.08993
570.0,0.08936
571.0,0.08826
572.0,0.0898
573.0,0.09022
574.0,0.08943
575.0,0.08724
576.0,0.08587
577.0,0.08623
578.0,0.0844
579.0,0.0842
580.0,0.08525
581.0,0.08511
582.0,0.08613
583.0,0.08584
584.0,0.0861
585.0,0.08349
586.0,0.0812
587.0,0.08241
588.0,0.07996
589.0,0.07044
590.0,0.07325
591.0,0.07707
592.0,0.07564
593.0,0.07628
594.0,0.0753
595.0,0.07303
596.0,0.07548
597.0,0.07426
598.0,0.07362
599.0,0.07325
600.0,0.07293
601.0,0.07192
602.0,0.07101
603.0,0.07174
604.0,0.07247
605.0,0.07165
606.0,0.07093
607.0,0.0712
608.0,0.06995
609.0,0.06962
610.0,0.06869
611.0,0.06864
612.0,0.06802
613.0,0.06673
614.0,0.0654
615.0,0.06642
616.0,0.06385
617.0,0.06335
618.0,0.0654
619.0,0.06437
620.0,0.0644
621.0,0.06409
622.0,0.06297
623.0,0.06163
624.0,0.0602
625.0,0.05975
626.0,0.06032
627.0,0.06064
628.0,0.05629
629.0,0.05849
630.0,0.05679
631.0,0.05772
632.0,0.05671
633.0,0.05813
634.0,0.05726
635.0,0.0578
636.0,0.05669
637.0,0.05728
638.0,0.05751
639.0,0.05653
640.0,0.05565
641.0,0.05528
642.0,0.05474
643.0,0.0552
644.0,0.05472
645.0,0.05449
646.0,0.0529
647.0,0.05199
648.0,0.05171
649.0,0.05044
650.0,0.0504
651.0,0.05228
652.0,0.04979
653.0,0.05102
654.0,0.05018
655.0,0.04801
656.0,0.04232
657.0,0.04325
658.0,0.04823
659.0,0.04832
660.0,0.04824
661.0,0.04831
662.0,0.04817
663.0,0.04699
664.0,0.04729
665.0,0.04706
666.0,0.04684
667.0,0.04654
668.0,0.04632
669.0,0.04677
670.0,0.04631
671.0,0.04606
672.0,0.04547
673.0,0.04596
674.0,0.04553
675.0,0.04487
676.0,0.04494
677.0,0.04429
678.0,0.0442
679.0,0.04327
680.0,0.0434
681.0,0.04289
682.0,0.04262
683.0,0.04232
684.0,0.04187
685.0,0.042
686.0,0.04155
687.0,0.02741
688.0,0.03199
689.0,0.03193
690.0,0.03332
691.0,0.03491
692.0,0.03602
693.0,0.03553
694.0,0.03499
695.0,0.03626
696.0,0.0361
697.0,0.03825
698.0,0.03747
699.0,0.03634
700.0,0.03571
701.0,0.0352
702.0,0.03529
703.0,0.03517
704.0,0.03612
705.0,0.03599
706.0,0.03579
707.0,0.03565
708.0,0.03555
709.0,0.03542
710.0,0.03523
711.0,0.03507
712.0,0.03484
713.0,0.03432
714.0,0.03425
715.0,0.03298
716.0,0.03285
717.0,0.02824
718.0,0.02564
719.0,0.02318
720.0,0.02431
721.0,0.02682
722.0,0.03082
723.0,0.02838
724.0,0.02527
725.0,0.02478
726.0,0.02595
727.0,0.02608
728.0,0.02439
729.0,0.02521
730.0,0.02667
731.0,0.02531
732.0,0.02703
733.0,0.02855
734.0,0.02909
735.0,0.02834
736.0,0.02819
737.0,0.02816
738.0,0.02847
739.0,0.02776
740.0,0.02835
741.0,0.02794
742.0,0.02783
743.0,0.02838
744.0,0.02815
745.0,0.02802
746.0,0.02802
747.0,0.02795
748.0,0.02774
749.0,0.02728
750.0,0.02713
751.0,0.02673
752.0,0.02672
753.0,0.02671
754.0,0.02663
755.0,0.02635
756.0,0.02623
757.0,0.02614
758.0,0.02569
759.0,0.02504
760.0,0.004063
761.0,0.002108
762.0,0.0125
763.0,0.006148
764.0,0.00925
765.0,0.01231
766.0,0.0151
767.0,0.01903
768.0,0.02191
769.0,0.02228
770.0,0.02295
771.0,0.02304
772.0,0.02298
773.0,0.02302
774.0,0.02279
775.0,0.02252
776.0,0.0227
777.0,0.02229
778.0,0.02204
779.0,0.02195
780.0,0.02172
781.0,0.02164
782.0,0.02167
783.0,0.0212
784.0,0.0212
785.0,0.02094
786.0,0.02107
787.0,0.02061
788.0,0.02025
789.0,0.02013
790.0,0.01949
791.0,0.01958
792.0,0.01934
793.0,0.01892
794.0,0.01918
795.0,0.01941
796.0,0.0187
797.0,0.01865
798.0,0.01913
799.0,0.01892
800.0,0.01849
801.0,0.01834
802.0,0.0182
803.0,0.01798
804.0,0.01793
805.0,0.01779
806.0,0.01821
807.0,0.01791
808.0,0.01785
809.0,0.01743
810.0,0.0172
811.0,0.01716
812.0,0.01657
813.0,0.01613
814.0,0.01402
815.0,0.01385
816.0,0.0127
817.0,0.0129
818.0,0.01236
819.0,0.01388
820.0,0.01296
821.0,0.01528
822.0,0.01473
823.0,0.009641
824.0,0.01416
825.0,0.01469
826.0,0.01402
827.0,0.01481
828.0,0.01234
829.0,0.01376
830.0,0.01351
831.0,0.0135
832.0,0.01299
833.0,0.0139
834.0,0.01332
835.0,0.01464
836.0,0.01391
837.0,0.01455
838.0,0.01403
839.0,0.01421
840.0,0.01446
841.0,0.01418
842.0,0.01416
843.0,0.01409
844.0,0.01383
845.0,0.01424
846.0,0.01412
847.0,0.0138
848.0,0.01365
849.0,0.01321
850.0,0.0126
851.0,0.01328
852.0,0.01312
853.0,0.01258
854.0,0.01081
855.0,0.01183
856.0,0.01287
857.0,0.01311
858.0,0.01296
859.0,0.01291
860.0,0.01288
861.0,0.01275
862.0,0.0129
863.0,0.01316
864.0,0.01245
865.0,0.01228
866.0,0.011
867.0,0.01143
868.0,0.01239
869.0,0.01208
870.0,0.01237
871.0,0.01215
872.0,0.01206
873.0,0.01198
874.0,0.01179
875.0,0.01149
876.0,0.01156
877.0,0.01163
878.0,0.01171
879.0,0.01148
880.0,0.01119
881.0,0.01097
882.0,0.01117
883.0,0.01116
884.0,0.01106
885.0,0.01109
886.0,0.01053
887.0,0.0106
888.0,0.01071
889.0,0.01079
890.0,0.01065
891.0,0.01059
892.0,0.01024
893.0,0.009858
894.0,0.009445
895.0,0.008854
896.0,0.008218
897.0,0.00693
898.0,0.007603
899.0,0.00557
900.0,0.007748
901.0,0.0059
902.0,0.006968
903.0,0.007013
904.0,0.008994
905.0,0.008619
906.0,0.007991
907.0,0.006318
908.0,0.00645
909.0,0.007034
910.0,0.006121
911.0,0.006532
912.0,0.006835
913.0,0.006143
914.0,0.006052
915.0,0.00663
916.0,0.005445
917.0,0.007117
918.0,0.005578
919.0,0.007177
920.0,0.007206
921.0,0.007548
922.0,0.00665
923.0,0.00723
924.0,0.006789
925.0,0.006588
926.0,0.006665
927.0,0.007491
928.0,0.00532
929.0,0.004808
930.0,0.003658
931.0,0.003407
932.0,0.002362
933.0,0.001873
934.0,0.0009764
935.0,0.00189
936.0,0.001124
937.0,0.001141
938.0,0.00143
939.0,0.00319
940.0,0.003921
941.0,0.002872
942.0,0.00335
943.0,0.002073
944.0,0.002168
945.0,0.002906
946.0,0.001359
947.0,0.002907
948.0,0.002026
949.0,0.004015
950.0,0.0009619
951.0,0.003909
952.0,0.001938
953.0,0.002566
954.0,0.003217
955.0,0.002597
956.0,0.002463
957.0,0.001917
958.0,0.003599
959.0,0.002785
960.0,0.003179
961.0,0.003585
962.0,0.003355
963.0,0.003921
964.0,0.003534
965.0,0.003871
966.0,0.003872
967.0,0.003834
968.0,0.005279
969.0,0.00555
970.0,0.005016
971.0,0.005812
972.0,0.005497
973.0,0.004709
974.0,0.004427
975.0,0.004574
976.0,0.004319
977.0,0.004963
978.0,0.004676
979.0,0.00491
980.0,0.004551
981.0,0.005558
982.0,0.005271
983.0,0.005022
984.0,0.005685
985.0,0.005196
986.0,0.005752
987.0,0.005611
988.0,0.005577
989.0,0.005676
990.0,0.005506
991.0,0.005646
992.0,0.005657
993.0,0.005504
994.0,0.005616
995.0,0.005589
996.0,0.00554
997.0,0.005527
998.0,0.005481
999.0,0.005441
1000.0,0.005381
1001.0,0.005431
1002.0,0.005251
1003.0,0.005293
1004.0,0.00514
1005.0,0.004936
1006.0,0.005106
1007.0,0.005195
1008.0,0.005146
1009.0,0.005098
1010.0,0.005056
1011.0,0.005093
1012.0,0.005026
1013.0,0.005043
1014.0,0.00499
1015.0,0.004938
1016.0,0.004896
1017.0,0.004889
1018.0,0.004853
1019.0,0.004727
1020.0,0.004789
1021.0,0.004764
1022.0,0.004707
1023.0,0.00474
1024.0,0.004658
1025.0,0.004704
1026.0,0.004665
1027.0,0.004636
1028.0,0.00461
1029.0,0.004539
1030.0,0.004554
1031.0,0.004518
1032.0,0.004488
1033.0,0.004403
1034.0,0.004386
1035.0,0.004383
1036.0,0.004388
1037.0,0.004301
1038.0,0.004304
1039.0,0.004287
1040.0,0.004253
1041.0,0.004254
1042.0,0.004208
1043.0,0.00418
1044.0,0.00418
1045.0,0.004108
1046.0,0.004046
1047.0,0.004067
1048.0,0.004075
1049.0,0.004046
1050.0,0.004013
1051.0,0.003992
1052.0,0.00396
1053.0,0.003915
1054.0,0.00391
1055.0,0.003897
1056.0,0.003868
1057.0,0.003841
1058.0,0.003734
1059.0,0.003725
1060.0,0.003705
1061.0,0.003686
1062.0,0.003691
1063.0,0.003642
1064.0,0.003673
1065.0,0.003632
1066.0,0.003548
1067.0,0.00358
1068.0,0.003488
1069.0,0.003368
1070.0,0.003468
1071.0,0.003512
1072.0,0.003456
1073.0,0.003396
1074.0,0.003475
1075.0,0.00328
1076.0,0.003446
1077.0,0.003366
1078.0,0.00329
1079.0,0.003355
1080.0,0.003273
1081.0,0.003159
1082.0,0.003206
1083.0,0.003205
1084.0,0.00311
1085.0,0.003228
1086.0,0.002905
1087.0,0.003015
1088.0,0.003141
1089.0,0.003025
1090.0,0.002934
1091.0,0.003093
1092.0,0.003076
1093.0,0.002562
1094.0,0.002792
1095.0,0.002665
1096.0,0.00253
1097.0,0.002955
1098.0,0.002473
1099.0,0.002576
1100.0,0.002362
1101.0,0.002391
1102.0,0.002268
1103.0,0.002232
1104.0,0.002229
1105.0,0.002459
1106.0,0.001824
1107.0,0.002307
1108.0,0.001913
1109.0,0.001906
1110.0,0.002261
1111.0,0.001454
1112.0,0.001871
1113.0,0.001123
1114.0,0.00127
1115.0,0.001015
1116.0,0.0007942
1117.0,0.0002614
1118.0,0.0008639
1119.0,0.0003936
1120.0,0.0005121
1121.0,0.0007011
1122.0,0.0002645
1123.0,0.0004492
1124.0,0.0003682
1125.0,0.0004992
1126.0,0.0001549
1127.0,0.0005679
1128.0,0.0003216
1129.0,0.000342
1130.0,0.0002148
1131.0,0.00116
1132.0,0.0008727
1133.0,0.000525
1134.0,0.0001149
1135.0,3.854e-05
1136.0,0.000424
1137.0,0.00112
1138.0,0.0007424
1139.0,0.001152
1140.0,0.0009423
1141.0,0.0006921
1142.0,0.0008061
1143.0,0.001204
1144.0,0.000363
1145.0,0.0004825
1146.0,0.000525
1147.0,0.000164
1148.0,0.0009961
1149.0,0.0007709
1150.0,0.0003869
1151.0,0.0007038
1152.0,0.0008863
1153.0,0.0008465
1154.0,0.0004549
1155.0,0.00115
1156.0,0.001018
1157.0,0.001155
1158.0,0.001136
1159.0,0.001234
1160.0,0.001032
1161.0,0.001301
1162.0,0.001299
1163.0,0.001813
1164.0,0.001522
1165.0,0.001427
1166.0,0.001403
1167.0,0.001539
1168.0,0.001557
1169.0,0.001597
1170.0,0.001739
1171.0,0.001682
1172.0,0.001706
1173.0,0.001716
1174.0,0.001177
1175.0,0.001663
1176.0,0.001832
1177.0,0.001749
1178.0,0.001266
1179.0,0.001829
1180.0,0.001608
1181.0,0.001664
1182.0,0.001093
1183.0,0.001631
1184.0,0.001505
1185.0,0.001443
1186.0,0.001736
1187.0,0.001641
1188.0,0.001101
1189.0,0.00151
1190.0,0.001669
1191.0,0.001576
1192.0,0.001684
1193.0,0.001601
1194.0,0.001652
1195.0,0.001555
1196.0,0.001488
1197.0,0.001645
1198.0,0.001486
1199.0,0.001246
1200.0,0.001553
1201.0,0.001489
1202.0,0.001472
1203.0,0.001466
1204.0,0.001252
1205.0,0.001497
1206.0,0.001669
1207.0,0.001453
1208.0,0.001429
1209.0,0.001453
1210.0,0.001514
1211.0,0.001432
1212.0,0.001413
1213.0,0.00158
1214.0,0.001441
1215.0,0.001406
1216.0,0.001559
1217.0,0.00151
1218.0,0.001536
1219.0,0.001512
1220.0,0.001528
1221.0,0.00154
1222.0,0.001491
1223.0,0.001472
1224.0,0.001459
1225.0,0.001511
1226.0,0.001516
1227.0,0.001388
1228.0,0.001514
1229.0,0.001502
1230.0,0.001471
1231.0,0.00151
1232.0,0.001496
1233.0,0.001438
1234.0,0.001494
1235.0,0.00148
1236.0,0.001486
1237.0,0.00146
1238.0,0.001471
1239.0,0.001448
1240.0,0.001449
1241.0,0.001437
1242.0,0.001429
1243.0,0.001412
1244.0,0.001417
1245.0,0.001419
1246.0,0.001406
1247.0,0.001396
1248.0,0.00139
1249.0,0.00139
1250.0,0.001377
1251.0,0.001355
1252.0,0.001351
1253.0,0.001336
1254.0,0.001317
1255.0,0.001337
1256.0,0.001294
1257.0,0.001283
1258.0,0.001303
1259.0,0.00125
1260.0,0.001253
1261.0,0.001177
1262.0,0.001137
1263.0,0.001136
1264.0,0.001043
1265.0,0.001123
1266.0,0.001075
1267.0,0.001092
1268.0,0.001031
1269.0,0.0006243
1270.0,0.001079
1271.0,0.001142
1272.0,0.001143
1273.0,0.001127
1274.0,0.001127
1275.0,0.001141
1276.0,0.001148
1277.0,0.001152
1278.0,0.001172
1279.0,0.001158
1280.0,0.001139
1281.0,0.001084
1282.0,0.001042
1283.0,0.001119
1284.0,0.001141
1285.0,0.001145
1286.0,0.001158
1287.0,0.001135
1288.0,0.001132
1289.0,0.001091
1290.0,0.001115
1291.0,0.001126
1292.0,0.001051
1293.0,0.001096
1294.0,0.001085
1295.0,0.001077
1296.0,0.001022
1297.0,0.0009599
1298.0,0.001035
1299.0,0.001077
1300.0,0.0008977
1301.0,0.0009254
1302.0,0.00102
1303.0,0.0008766
1304.0,0.0007376
1305.0,0.000987
1306.0,0.0009851
1307.0,0.0007441
1308.0,0.0008614
1309.0,0.000969
1310.0,0.0007219
1311.0,0.0008161
1312.0,0.0007941
1313.0,0.000774
1314.0,0.0006797
1315.0,0.0006746
1316.0,0.0007931
1317.0,0.0007418
1318.0,0.0008116
1319.0,0.0006189
1320.0,0.0005905
1321.0,0.0007014
1322.0,0.0007097
1323.0,0.0005169
1324.0,0.0005956
1325.0,0.0007587
1326.0,0.0006397
1327.0,0.0006047
1328.0,0.0005099
1329.0,0.0003724
1330.0,0.0005015
1331.0,0.0002861
1332.0,0.0002928
1333.0,0.0004277
1334.0,0.0003454
1335.0,0.0004967
1336.0,0.0003801
1337.0,0.0003315
1338.0,0.0003623
1339.0,0.0003588
1340.0,0.0003425
1341.0,0.0003382
1342.0,0.0003571
1343.0,0.0002368
1344.0,0.0001293
1345.0,0.000196
1346.0,9.285e-05
1347.0,9.525e-05
1348.0,5.039e-06
1349.0,2.005e-05
1350.0,2.019e-05
1351.0,4.675e-06
1352.0,1.217e-06
1353.0,5.534e-08
1354.0,1.949e-07
1355.0,1.445e-09
1356.0,2.617e-08
1357.0,4.033e-08
1358.0,1.698e-09
1359.0,2.127e-10
1360.0,7.708e-10
1361.0,8.368e-13
1362.0,2.27e-15
1363.0,1.05e-09
1364.0,4.281e-10
1365.0,7.93e-16
1366.0,4.698e-09
1367.0,1.857e-09
1368.0,6.119e-18
1369.0,1.557e-10
1370.0,7.669e-11
1371.0,4.277e-12
1372.0,9.945e-10
1373.0,2.105e-08
1374.0,1.01e-07
1375.0,1.891e-07
1376.0,1.631e-07
1377.0,7.249e-08
1378.0,7.909e-07
1379.0,2.944e-08
1380.0,4.355e-08
1381.0,1.06e-09
1382.0,8.73e-10
1383.0,1.262e-11
1384.0,1.695e-10
1385.0,8.069e-10
1386.0,7.755e-10
1387.0,1.033e-07
1388.0,1.803e-09
1389.0,3.582e-07
1390.0,3.031e-07
1391.0,1.994e-07
1392.0,1.173e-08
1393.0,6.445e-08
1394.0,3.414e-08
1395.0,2.275e-10
1396.0,1.088e-12
1397.0,2.485e-08
1398.0,8.46e-07
1399.0,5.165e-07
1400.0,4.654e-13
1401.0,1.932e-12
1402.0,1.426e-06
1403.0,1.847e-06
1404.0,5.179e-07
1405.0,1.076e-10
1406.0,1.466e-06
1407.0,1.118e-07
1408.0,1.167e-06
1409.0,3.745e-07
1410.0,2.909e-07
1411.0,1.564e-06
1412.0,2.111e-06
1413.0,2.533e-05
1414.0,2.235e-07
1415.0,1.047e-07
1416.0,4.185e-05
1417.0,1.152e-05
1418.0,1.32e-05
1419.0,1.759e-06
1420.0,7.642e-06
1421.0,8.407e-06
1422.0,5.536e-05
1423.0,9.034e-06
1424.0,1.783e-05
1425.0,2.752e-05
1426.0,3.114e-05
1427.0,6.008e-05
1428.0,3.705e-06
1429.0,4.364e-05
1430.0,7.794e-05
1431.0,8.597e-05
1432.0,2.827e-06
1433.0,5.167e-05
1434.0,2.44e-05
1435.0,2.486e-05
1436.0,5.09e-05
1437.0,3.762e-05
1438.0,1.458e-05
1439.0,7.099e-05
1440.0,5.136e-05
1441.0,3.805e-05
1442.0,4.243e-05
1443.0,5.381e-05
1444.0,7.773e-05
1445.0,5.907e-05
1446.0,2.404e-05
1447.0,4.017e-05
1448.0,0.0001553
1449.0,0.0001328
1450.0,2.849e-05
1451.0,1.045e-05
1452.0,7.416e-05
1453.0,0.0001006
1454.0,0.0001852
1455.0,7.845e-05
1456.0,0.0001104
1457.0,0.0001528
1458.0,0.0001823
1459.0,0.0002219
1460.0,0.0001048
1461.0,0.0001103
1462.0,0.0001707
1463.0,4.731e-05
1464.0,0.0002053
1465.0,0.000114
1466.0,7.544e-05
1467.0,3.679e-05
1468.0,9.052e-05
1469.0,0.0001145
1470.0,5.232e-05
1471.0,1.682e-05
1472.0,4.958e-05
1473.0,7.922e-05
1474.0,0.00012
1475.0,0.000248
1476.0,7.784e-05
1477.0,7.865e-05
1478.0,7.126e-05
1479.0,0.0001497
1480.0,6.589e-05
1481.0,0.0001416
1482.0,6.348e-05
1483.0,0.0001907
1484.0,0.0001741
1485.0,0.0001529
1486.0,0.0001503
1487.0,6.282e-05
1488.0,0.0001175
1489.0,0.0002506
1490.0,0.0002268
1491.0,0.00026
1492.0,0.000211
1493.0,0.0002346
1494.0,0.0002667
1495.0,0.0002328
1496.0,0.0002161
1497.0,0.0003055
1498.0,0.0002434
1499.0,0.00029
1500.0,0.000337
1501.0,0.0003569
1502.0,0.0002949
1503.0,0.0002468
1504.0,0.0001929
1505.0,0.0002365
1506.0,0.0003519
1507.0,0.0003365
1508.0,0.0003179
1509.0,0.0002361
1510.0,0.000362
1511.0,0.0003491
1512.0,0.0003443
1513.0,0.0003142
1514.0,0.0002912
1515.0,0.0003517
1516.0,0.0003347
1517.0,0.0003265
1518.0,0.0003242
1519.0,0.0003163
1520.0,0.0003414
1521.0,0.0003635
1522.0,0.0003447
1523.0,0.0003671
1524.0,0.0003556
1525.0,0.0003385
1526.0,0.000343
1527.0,0.0003388
1528.0,0.0003608
1529.0,0.0003419
1530.0,0.0003351
1531.0,0.0003435
1532.0,0.0003563
1533.0,0.0003554
1534.0,0.0003483
1535.0,0.0003458
1536.0,0.0003514
1537.0,0.000343
1538.0,0.0003456
1539.0,0.000339
1540.0,0.0003391
1541.0,0.0003407
1542.0,0.0003363
1543.0,0.0003413
1544.0,0.0003366
1545.0,0.0003421
1546.0,0.0003362
1547.0,0.0003306
1548.0,0.0003298
1549.0,0.000332
1550.0,0.0003289
1551.0,0.0003306
1552.0,0.0003273
1553.0,0.0003244
1554.0,0.0003208
1555.0,0.0003208
1556.0,0.0003198
1557.0,0.0003228
1558.0,0.0003203
1559.0,0.0003176
1560.0,0.0003191
1561.0,0.0003206
1562.0,0.0003159
1563.0,0.0003126
1564.0,0.0003134
1565.0,0.0003132
1566.0,0.0003084
1567.0,0.0003083
1568.0,0.0003045
1569.0,0.0003057
1570.0,0.0003079
1571.0,0.0003098
1572.0,0.0003072
1573.0,0.0003046
1574.0,0.0002932
1575.0,0.0002891
1576.0,0.000284
1577.0,0.0002761
1578.0,0.0002894
1579.0,0.0002915
1580.0,0.0002934
1581.0,0.0002884
1582.0,0.0002819
1583.0,0.0002826
1584.0,0.000287
1585.0,0.0002894
1586.0,0.0002854
1587.0,0.0002801
1588.0,0.0002714
1589.0,0.0002624
1590.0,0.0002678
1591.0,0.0002738
1592.0,0.0002813
1593.0,0.000285
1594.0,0.0002838
1595.0,0.0002795
1596.0,0.0002706
1597.0,0.000277
1598.0,0.0002801
1599.0,0.0002763
1600.0,0.0002739
1601.0,0.0002694
1602.0,0.0002696
1603.0,0.0002715
1604.0,0.0002688
1605.0,0.000268
1606.0,0.0002643
1607.0,0.0002659
1608.0,0.0002652
1609.0,0.0002575
1610.0,0.0002515
1611.0,0.0002554
1612.0,0.0002578
1613.0,0.0002577
1614.0,0.000257
1615.0,0.0002506
1616.0,0.0002462
1617.0,0.0002506
1618.0,0.0002542
1619.0,0.000249
1620.0,0.000243
1621.0,0.0002452
1622.0,0.0002485
1623.0,0.0002515
1624.0,0.000248
1625.0,0.0002464
1626.0,0.0002464
1627.0,0.0002477
1628.0,0.0002464
1629.0,0.0002436
1630.0,0.0002416
1631.0,0.0002397
1632.0,0.0002385
1633.0,0.0002309
1634.0,0.0002354
1635.0,0.0002317
1636.0,0.0002291
1637.0,0.000226
1638.0,0.0002125
1639.0,0.0002201
1640.0,0.0002105
1641.0,0.0002175
1642.0,0.0002212
1643.0,0.0002088
1644.0,0.00022
1645.0,0.0002136
1646.0,0.0002082
1647.0,0.0002219
1648.0,0.0002064
1649.0,0.0002156
1650.0,0.0002166
1651.0,0.0002008
1652.0,0.0002136
1653.0,0.0002149
1654.0,0.0002032
1655.0,0.0002138
1656.0,0.0002099
1657.0,0.0002109
1658.0,0.0002129
1659.0,0.0002108
1660.0,0.0002121
1661.0,0.0002104
1662.0,0.0002042
1663.0,0.0002082
1664.0,0.0002059
1665.0,0.0001941
1666.0,0.0001586
1667.0,0.0001912
1668.0,0.0001976
1669.0,0.0001984
1670.0,0.0002013
1671.0,0.0001951
1672.0,0.0001922
1673.0,0.0001962
1674.0,0.0001915
1675.0,0.000188
1676.0,0.0001888
1677.0,0.0001881
1678.0,0.0001822
1679.0,0.0001855
1680.0,0.0001775
1681.0,0.0001718
1682.0,0.0001808
1683.0,0.0001842
1684.0,0.0001705
1685.0,0.0001853
1686.0,0.0001844
1687.0,0.0001771
1688.0,0.0001824
1689.0,0.0001799
1690.0,0.0001789
1691.0,0.0001628
1692.0,0.0001773
1693.0,0.0001819
1694.0,0.0001747
1695.0,0.0001791
1696.0,0.0001785
1697.0,0.0001496
1698.0,0.0001761
1699.0,0.0001732
1700.0,0.0001681
1702.0,0.0001704
1705.0,0.000164
1710.0,0.0001534
1715.0,0.0001517
1720.0,0.0001483
1725.0,0.0001368
1730.0,0.0001335
1735.0,0.000123
1740.0,0.0001236
1745.0,0.0001139
1750.0,0.0001216
1755.0,0.0001098
1760.0,0.0001142
1765.0,9.065e-05
1770.0,9.72e-05
1775.0,7.561e-05
1780.0,6.319e-05
1785.0,4.578e-05
1790.0,5.365e-05
1795.0,2.485e-05
1800.0,1.599e-05
1805.0,6.198e-06
1810.0,3.835e-06
1815.0,1.082e-06
1820.0,2.545e-07
1825.0,3.379e-07
1830.0,7.113e-10
1835.0,1.062e-09
1840.0,6.049e-12
1845.0,6.931e-10
1850.0,3.071e-10
1855.0,2.817e-11
1860.0,1.665e-09
1865.0,2.369e-09
1870.0,1.209e-14
1875.0,2.186e-14
1880.0,1.273e-08
1885.0,6.686e-09
1890.0,3.887e-08
1895.0,2.18e-08
1900.0,8.61e-11
1905.0,5.83e-11
1910.0,2.966e-09
1915.0,2.833e-09
1920.0,8.134e-08
1925.0,1.926e-07
1930.0,1.087e-07
1935.0,8.935e-07
1940.0,8.618e-07
1945.0,3.854e-06
1950.0,7.811e-06
1955.0,7.036e-06
1960.0,1.27e-05
1965.0,1.904e-05
1970.0,2.737e-05
1975.0,3.122e-05
1980.0,3.117e-05
1985.0,3.354e-05
1990.0,3.454e-05
1995.0,3.632e-05
2000.0,3.804e-05
2005.0,3.145e-05
2010.0,4.55e-05
2015.0,3.508e-05
2020.0,3.732e-05
2025.0,4.027e-05
2030.0,3.65e-05
2035.0,3.942e-05
2040.0,3.714e-05
2045.0,3.796e-05
2050.0,3.811e-05
2055.0,3.615e-05
2060.0,3.46e-05
2065.0,3.488e-05
2070.0,3.41e-05
2075.0,3.454e-05
2080.0,3.331e-05
2085.0,3.28e-05
2090.0,3.286e-05
2095.0,3.156e-05
2100.0,2.914e-05
2105.0,3.129e-05
2110.0,2.973e-05
2115.0,3.019e-05
2120.0,2.81e-05
2125.0,2.829e-05
2130.0,2.84e-05
2135.0,2.838e-05
2140.0,2.835e-05
2145.0,2.78e-05
2150.0,2.581e-05
2155.0,2.559e-05
2160.0,2.508e-05
2165.0,2.262e-05
2170.0,2.391e-05
2175.0,2.314e-05
2180.0,2.355e-05
2185.0,2.082e-05
2190.0,2.233e-05
2195.0,2.193e-05
2200.0,1.91e-05
2205.0,1.994e-05
2210.0,2.147e-05
2215.0,2.031e-05
2220.0,2.057e-05
2225.0,1.973e-05
2230.0,1.965e-05
2235.0,1.895e-05
2240.0,1.854e-05
2245.0,1.76e-05
2250.0,1.774e-05
2255.0,1.634e-05
2260.0,1.587e-05
2265.0,1.61e-05
2270.0,1.497e-05
2275.0,1.459e-05
2280.0,1.517e-05
2285.0,1.405e-05
2290.0,1.393e-05
2295.0,1.343e-05
2300.0,1.26e-05
2305.0,1.259e-05
2310.0,1.375e-05
2315.0,1.215e-05
2320.0,1.049e-05
2325.0,1.167e-05
2330.0,1.159e-05
2335.0,1.179e-05
2340.0,8.886e-06
2345.0,1.006e-05
2350.0,7.738e-06
2355.0,9.076e-06
2360.0,9.596e-06
2365.0,9.356e-06
2370.0,5.241e-06
2375.0,8.075e-06
2380.0,7.614e-06
2385.0,5.258e-06
2390.0,6.292e-06
2395.0,6.956e-06
2400.0,7.617e-06
2405.0,5.553e-06
2410.0,5.528e-06
2415.0,4.309e-06
2420.0,4.104e-06
2425.0,5.237e-06
2430.0,7.32e-06
2435.0,2.049e-06
2440.0,6.933e-06
2445.0,2.935e-06
2450.0,1.79e-06
2455.0,3.551e-06
2460.0,4.887e-06
2465.0,3.325e-06
2470.0,2.15e-06
2475.0,2.083e-06
2480.0,9.273e-07
2485.0,5.962e-07
2490.0,3.373e-07
2495.0,2.883e-07
2500.0,7.517e-07
2505.0,1.392e-07
2510.0,2.094e-07
2515.0,4.208e-08
2520.0,2.453e-08
2525.0,2.571e-09
2530.0,1.761e-11
2535.0,3.873e-12
2540.0,9.229e-12
2545.0,6.931e-16
2550.0,2.805e-18
2555.0,1.357e-14
2560.0,4.046e-16
2565.0,9.045e-20
2570.0,2.692e-24
2575.0,1.703e-34
2580.0,1.7760000000000001e-28
2585.0,3.712e-42
2590.0,2.316e-38
2595.0,4.506e-40
2600.0,3.709e-35
2605.0,4.1e-42
2610.0,1.411e-41
2615.0,1.4009999999999999e-45
2620.0,1.244e-35
2625.0,2.277e-35
2630.0,0.0
2635.0,1.186e-21
2640.0,2.568e-22
2645.0,1.119e-24
2650.0,1.115e-25
2655.0,1.34e-34
2660.0,1.129e-31
2665.0,0.0
2670.0,0.0
2675.0,0.0
2680.0,2.2880000000000002e-30
2685.0,2.1860000000000003e-31
2690.0,8.177e-31
2695.0,3.209e-33
2700.0,9.343999999999999e-29
2705.0,2.65e-26
2710.0,2.11e-31
2715.0,2.665e-29
2720.0,0.0
2725.0,5.967e-27
2730.0,1.74e-24
2735.0,1.9840000000000002e-26
2740.0,3.5830000000000003e-32
2745.0,4.619e-27
2750.0,2.589e-26
2755.0,4.167000000000001e-28
2760.0,6.241999999999999e-23
2765.0,2.9289999999999997e-29
2770.0,1.439e-26
2775.0,1.777e-23
2780.0,8.276e-21
2785.0,3.106e-20
2790.0,7.087e-18
2795.0,1.559e-18
2800.0,4.978e-15
2805.0,9.303e-17
2810.0,3.737e-13
2815.0,1.114e-13
2820.0,1.359e-15
2825.0,1.2e-11
2830.0,2.616e-10
2835.0,3.572e-15
2840.0,7.663e-12
2845.0,2.674e-09
2850.0,4.597e-11
2855.0,1.831e-11
2860.0,9.576e-10
2865.0,7.094e-09
2870.0,1.787e-10
2875.0,1.729e-08
2880.0,1.085e-08
2885.0,1.794e-08
2890.0,7.586e-09
2895.0,1.305e-07
2900.0,3.616e-08
2905.0,4.166e-09
2910.0,1.33e-07
2915.0,5.627e-08
2920.0,1.401e-07
2925.0,4.969e-08
2930.0,3.034e-07
2935.0,3.35e-07
2940.0,7.446e-08
2945.0,6.392e-08
2950.0,2.597e-07
2955.0,1.149e-07
2960.0,2.292e-07
2965.0,3.889e-07
2970.0,1.503e-08
2975.0,3.821e-08
2980.0,5.964e-08
2985.0,3.536e-07
2990.0,5.371e-07
2995.0,2.029e-07
3000.0,3.872e-07
3005.0,1.311e-07
3010.0,3.389e-07
3015.0,2.627e-07
3020.0,2.351e-08
3025.0,3.626e-07
3030.0,2.856e-07
3035.0,1.079e-07
3040.0,8.432e-08
3045.0,1.821e-07
3050.0,4.091e-08
3055.0,9.971e-09
3060.0,2.847e-07
3065.0,1.2e-07
3070.0,6.728e-08
3075.0,2.659e-07
3080.0,1.538e-07
3085.0,6.778e-08
3090.0,9.246e-08
3095.0,2.256e-08
3100.0,1.856e-07
3105.0,3.437e-08
3110.0,2.887e-08
3115.0,8.717e-08
3120.0,4.343e-07
3125.0,1.256e-07
3130.0,2.513e-07
3135.0,5.103e-07
3140.0,1.335e-07
3145.0,1.309e-07
3150.0,2.796e-07
3155.0,2.347e-07
3160.0,3.93e-07
3165.0,6.212e-07
3170.0,5.498e-07
3175.0,3.85e-07
3180.0,4.553e-07
3185.0,3.191e-07
3190.0,1.647e-07
3195.0,9.171e-08
3200.0,1.268e-08
3205.0,8.277e-09
3210.0,3.428e-09
3215.0,1.411e-08
3220.0,5.014e-08
3225.0,5.623e-09
3230.0,9.405e-09
3235.0,2.748e-07
3240.0,1.24e-07
3245.0,2.284e-08
3250.0,8.595e-08
3255.0,3.786e-07
3260.0,3.65e-08
3265.0,7.98e-08
3270.0,3.727e-08
3275.0,2.303e-07
3280.0,9.667e-08
3285.0,4.311e-07
3290.0,3.233e-07
3295.0,3.824e-08
3300.0,5.708e-08
3305.0,1.336e-07
3310.0,1.273e-07
3315.0,1.765e-10
3320.0,1.11e-09
3325.0,1.07e-07
3330.0,1.614e-07
3335.0,3.191e-07
3340.0,1.146e-07
3345.0,1.115e-07
3350.0,2.813e-07
3355.0,1.126e-07
3360.0,1.73e-07
3365.0,2.443e-07
3370.0,1.175e-07
3375.0,2.865e-07
3380.0,1.546e-07
3385.0,2.452e-07
3390.0,3.235e-07
3395.0,3.124e-07
3400.0,4.221e-07
3405.0,1.276e-07
3410.0,2.244e-07
3415.0,2.186e-07
3420.0,4.374e-07
3425.0,3.127e-07
3430.0,2.638e-07
3435.0,3.762e-07
3440.0,2.407e-07
3445.0,3.593e-07
3450.0,3.509e-07
3455.0,2.497e-07
3460.0,3.994e-07
3465.0,2.96e-07
3470.0,3.866e-07
3475.0,3.359e-07
3480.0,3.441e-07
3485.0,3.744e-07
3490.0,3.124e-07
3495.0,3.762e-07
3500.0,3.634e-07
3505.0,3.579e-07
3510.0,3.627e-07
3515.0,3.467e-07
3520.0,3.705e-07
3525.0,3.451e-07
3530.0,3.351e-07
3535.0,2.742e-07
3540.0,2.595e-07
3545.0,2.753e-07
3550.0,3.108e-07
3555.0,2.603e-07
3560.0,3.18e-07
3565.0,3.177e-07
3570.0,2.383e-07
3575.0,2.468e-07
3580.0,2.971e-07
3585.0,2.593e-07
3590.0,2.705e-07
3595.0,2.76e-07
3600.0,2.952e-07
3605.0,2.949e-07
3610.0,2.667e-07
3615.0,2.663e-07
3620.0,3.327e-07
3625.0,2.843e-07
3630.0,2.761e-07
3635.0,2.844e-07
3640.0,3.209e-07
3645.0,2.886e-07
3650.0,2.736e-07
3655.0,2.99e-07
3660.0,2.958e-07
3665.0,2.727e-07
3670.0,2.036e-07
3675.0,1.146e-07
3680.0,2.117e-07
3685.0,2.441e-07
3690.0,2.519e-07
3695.0,2.627e-07
3700.0,2.85e-07
3705.0,2.795e-07
3710.0,2.379e-07
3715.0,2.335e-07
3720.0,2.672e-07
3725.0,2.746e-07
3730.0,2.331e-07
3735.0,2.103e-07
3740.0,2.164e-07
3745.0,2.562e-07
3750.0,2.294e-07
3755.0,2.208e-07
3760.0,2.168e-07
3765.0,2.072e-07
3770.0,2.232e-07
3775.0,2.196e-07
3780.0,2.337e-07
3785.0,2.111e-07
3790.0,1.829e-07
3795.0,2.119e-07
3800.0,2.402e-07
3805.0,2.233e-07
3810.0,1.942e-07
3815.0,1.798e-07
3820.0,2.308e-07
3825.0,2.247e-07
3830.0,2.276e-07
3835.0,1.75e-07
3840.0,2.095e-07
3845.0,2.03e-07
3850.0,2.038e-07
3855.0,1.935e-07
3860.0,1.785e-07
3865.0,1.793e-07
3870.0,1.599e-07
3875.0,1.431e-07
3880.0,1.372e-07
3885.0,1.422e-07
3890.0,1.439e-07
3895.0,1.594e-07
3900.0,1.702e-07
3905.0,1.691e-07
3910.0,1.485e-07
3915.0,1.439e-07
3920.0,1.431e-07
3925.0,1.399e-07
3930.0,1.446e-07
3935.0,1.513e-07
3940.0,1.529e-07
3945.0,1.552e-07
3950.0,1.575e-07
3955.0,1.588e-07
3960.0,1.597e-07
3965.0,1.606e-07
3970.0,1.581e-07
3975.0,1.53e-07
3980.0,1.498e-07
3985.0,1.499e-07
3990.0,1.472e-07
3995.0,1.432e-07
4000.0,1.366e-07
