interpolation:linear
wavelength,value
280.0,1.742e-20
280.5,5.113e-19
281.0,2.642e-18
281.5,4.161e-19
282.0,1.594e-18
282.5,4.389e-18
283.0,1.444e-17
283.5,2.374e-17
284.0,3.773e-16
284.5,1.072e-15
285.0,1.931e-15
285.5,1.074e-14
286.0,4.437e-14
286.5,2.035e-13
287.0,5.858e-13
287.5,2.237e-12
288.0,6.169e-12
288.5,2.319e-11
289.0,7.34e-11
289.5,2.573e-10
290.0,7.917e-10
290.5,1.743e-09
291.0,4.053e-09
291.5,1.267e-08
292.0,3.314e-08
292.5,5.186e-08
293.0,1.283e-07
293.5,3.838e-07
294.0,7.026e-07
294.5,8.191e-07
295.0,1.63e-06
295.5,4.056e-06
296.0,7.772e-06
296.5,1.083e-05
297.0,1.462e-05
297.5,3.932e-05
298.0,6.234e-05
298.5,6.314e-05
299.0,0.0001405
299.5,0.0002391
300.0,0.0002673
300.5,0.000395
301.0,0.0007451
301.5,0.001242
302.0,0.001089
302.5,0.002049
303.0,0.003506
303.5,0.004281
304.0,0.003954
304.5,0.005684
305.0,0.008209
305.5,0.009112
306.0,0.00869
306.5,0.01059
307.0,0.0151
307.5,0.01933
308.0,0.02022
308.5,0.0234
309.0,0.02363
309.5,0.02585
310.0,0.02539
310.5,0.0406
311.0,0.05002
311.5,0.04779
312.0,0.04623
312.5,0.055
313.0,0.05885
313.5,0.05738
314.0,0.06996
314.5,0.06021
315.0,0.07843
315.5,0.06609
316.0,0.05635
316.5,0.07931
317.0,0.09806
317.5,0.102
318.0,0.07845
318.5,0.0952
319.0,0.1115
319.5,0.0918
320.0,0.1107
320.5,0.1355
321.0,0.1184
321.5,0.1129
322.0,0.1216
322.5,0.1053
323.0,0.1034
323.5,0.1271
324.0,0.1476
324.5,0.1497
325.0,0.1276
325.5,0.1622
326.0,0.1999
326.5,0.1985
327.0,0.1973
327.5,0.1901
328.0,0.1697
328.5,0.1762
329.0,0.2091
329.5,0.2361
330.0,0.2374
330.5,0.1898
331.0,0.1928
331.5,0.1946
332.0,0.2087
332.5,0.2053
333.0,0.204
333.5,0.1842
334.0,0.188
334.5,0.2155
335.0,0.2014
335.5,0.2398
336.0,0.1653
336.5,0.1883
337.0,0.154
337.5,0.1907
338.0,0.1852
338.5,0.2169
339.0,0.2127
339.5,0.2045
340.0,0.2352
340.5,0.2111
341.0,0.2081
341.5,0.1887
342.0,0.2241
342.5,0.2084
343.0,0.2293
343.5,0.2158
344.0,0.157
344.5,0.161
345.0,0.2098
345.5,0.2125
346.0,0.1794
346.5,0.202
347.0,0.2168
347.5,0.1748
348.0,0.1975
348.5,0.1961
349.0,0.181
349.5,0.1785
350.0,0.2198
350.5,0.2309
351.0,0.2058
351.5,0.2004
352.0,0.2134
352.5,0.1654
353.0,0.2072
353.5,0.2204
354.0,0.2277
354.5,0.2299
355.0,0.2283
355.5,0.2053
356.0,0.2138
356.5,0.1818
357.0,0.1496
357.5,0.1823
358.0,0.1438
358.5,0.1224
359.0,0.1705
359.5,0.2166
360.0,0.2285
360.5,0.1818
361.0,0.165
361.5,0.1891
362.0,0.1628
362.5,0.2244
363.0,0.2007
363.5,0.1841
364.0,0.2242
364.5,0.1908
365.0,0.1935
365.5,0.2419
366.0,0.2552
366.5,0.2388
367.0,0.2315
367.5,0.2393
368.0,0.2085
368.5,0.2095
369.0,0.2253
369.5,0.2392
370.0,0.2539
370.5,0.1962
371.0,0.2088
371.5,0.2601
372.0,0.1719
372.5,0.2053
373.0,0.2079
373.5,0.1347
374.0,0.195
374.5,0.1608
375.0,0.1556
375.5,0.2314
376.0,0.191
376.5,0.1971
377.0,0.2078
377.5,0.2421
378.0,0.2614
378.5,0.246
379.0,0.2021
379.5,0.1838
380.0,0.1902
380.5,0.2294
381.0,0.2288
381.5,0.1806
382.0,0.1597
382.5,0.1355
383.0,0.1249
383.5,0.1198
384.0,0.1316
384.5,0.1928
385.0,0.1904
385.5,0.1765
386.0,0.1506
386.5,0.1969
387.0,0.1629
387.5,0.1822
388.0,0.1675
388.5,0.1649
389.0,0.1772
389.5,0.2137
390.0,0.2136
390.5,0.1957
391.0,0.2294
391.5,0.2329
392.0,0.1953
392.5,0.1741
393.0,0.09648
393.5,0.06984
394.0,0.1415
394.5,0.1792
395.0,0.2178
395.5,0.2203
396.0,0.1902
396.5,0.1107
397.0,0.08273
397.5,0.1675
398.0,0.2336
398.5,0.2405
399.0,0.2593
399.5,0.2574
400.0,0.2662
401.0,0.2614
402.0,0.2734
403.0,0.2575
404.0,0.2514
405.0,0.2493
406.0,0.2432
407.0,0.2372
408.0,0.2444
409.0,0.2595
410.0,0.2249
411.0,0.2416
412.0,0.2574
413.0,0.249
414.0,0.25
415.0,0.2486
416.0,0.2508
417.0,0.2425
418.0,0.236
419.0,0.2371
420.0,0.2341
421.0,0.2428
422.0,0.2288
423.0,0.2216
424.0,0.2324
425.0,0.23
426.0,0.2222
427.0,0.2163
428.0,0.2091
429.0,0.1965
430.0,0.1705
431.0,0.1676
432.0,0.2146
433.0,0.2139
434.0,0.197
435.0,0.2041
436.0,0.2282
437.0,0.2234
438.0,0.2019
439.0,0.2072
440.0,0.212
441.0,0.2179
442.0,0.2317
443.0,0.2239
444.0,0.227
445.0,0.2203
446.0,0.2086
447.0,0.2237
448.0,0.2253
449.0,0.2243
450.0,0.2286
451.0,0.2352
452.0,0.2247
453.0,0.2098
454.0,0.2173
455.0,0.2169
456.0,0.2202
457.0,0.222
458.0,0.2127
459.0,0.2098
460.0,0.2087
461.0,0.2118
462.0,0.2118
463.0,0.2089
464.0,0.204
465.0,0.1999
466.0,0.2003
467.0,0.195
468.0,0.1956
469.0,0.195
470.0,0.1873
471.0,0.1858
472.0,0.1943
473.0,0.1902
474.0,0.189
475.0,0.1891
476.0,0.182
477.0,0.181
478.0,0.1844
479.0,0.1817
480.0,0.1806
481.0,0.1823
482.0,0.1818
483.0,0.1782
484.0,0.1733
485.0,0.1639
486.0,0.1422
487.0,0.1479
488.0,0.161
489.0,0.1603
490.0,0.1673
491.0,0.1632
492.0,0.1529
493.0,0.1567
494.0,0.1571
495.0,0.1573
496.0,0.1571
497.0,0.1583
498.0,0.1497
499.0,0.1504
500.0,0.1448
501.0,0.141
502.0,0.1378
503.0,0.1422
504.0,0.1375
505.0,0.1414
506.0,0.1449
507.0,0.1369
508.0,0.1317
509.0,0.1344
510.0,0.1328
511.0,0.1355
512.0,0.1359
513.0,0.1277
514.0,0.1259
515.0,0.1237
516.0,0.1225
517.0,0.1081
518.0,0.1128
519.0,0.1175
520.0,0.1208
521.0,0.1211
522.0,0.1203
523.0,0.1173
524.0,0.1206
525.0,0.1211
526.0,0.1149
527.0,0.1074
528.0,0.1127
529.0,0.1179
530.0,0.1154
531.0,0.1163
532.0,0.1116
533.0,0.1076
534.0,0.11
535.0,0.1116
536.0,0.1119
537.0,0.1068
538.0,0.1079
539.0,0.1063
540.0,0.1013
541.0,0.1012
542.0,0.1036
543.0,0.1018
544.0,0.1029
545.0,0.102
546.0,0.1017
547.0,0.101
548.0,0.09909
549.0,0.09874
550.0,0.09925
551.0,0.09738
552.0,0.09737
553.0,0.09498
554.0,0.0966
555.0,0.09615
556.0,0.09422
557.0,0.09063
558.0,0.08929
559.0,0.08697
560.0,0.08742
561.0,0.08791
562.0,0.08663
563.0,0.08837
564.0,0.08538
565.0,0.08408
566.0,0.08227
567.0,0.08323
568.0,0.08191
569.0,0.0794
570.0,0.07887
571.0,0.07788
572.0,0.07917
573.0,0.07952
574.0,0.0788
575.0,0.07686
576.0,0.07568
577.0,0.07603
578.0,0.07446
579.0,0.07434
580.0,0.07534
581.0,0.07528
582.0,0.07624
583.0,0.07603
584.0,0.07629
585.0,0.074
586.0,0.07199
587.0,0.07305
588.0,0.07081
589.0,0.06224
590.0,0.06472
591.0,0.06815
592.0,0.06682
593.0,0.0674
594.0,0.06646
595.0,0.06438
596.0,0.06659
597.0,0.06544
598.0,0.06486
599.0,0.0645
600.0,0.06422
601.0,0.06333
602.0,0.06253
603.0,0.06318
604.0,0.06385
605.0,0.06316
606.0,0.06257
607.0,0.06286
608.0,0.06182
609.0,0.06158
610.0,0.06082
611.0,0.06082
612.0,0.06033
613.0,0.05924
614.0,0.05811
615.0,0.05907
616.0,0.05683
617.0,0.05642
618.0,0.05828
619.0,0.0574
620.0,0.05745
621.0,0.05719
622.0,0.0562
623.0,0.05502
624.0,0.05377
625.0,0.05339
626.0,0.05391
627.0,0.05421
628.0,0.0501
629.0,0.05225
630.0,0.05075
631.0,0.05169
632.0,0.05082
633.0,0.05215
634.0,0.05142
635.0,0.05194
636.0,0.05099
637.0,0.05156
638.0,0.05181
639.0,0.05098
640.0,0.05022
641.0,0.04992
642.0,0.04947
643.0,0.0499
644.0,0.0495
645.0,0.04931
646.0,0.04786
647.0,0.04699
648.0,0.04676
649.0,0.04562
650.0,0.04568
651.0,0.04742
652.0,0.04509
653.0,0.04631
654.0,0.04557
655.0,0.04358
656.0,0.03846
657.0,0.03931
658.0,0.04388
659.0,0.04399
660.0,0.04394
661.0,0.04402
662.0,0.04389
663.0,0.04283
664.0,0.04314
665.0,0.04297
666.0,0.04278
667.0,0.04254
668.0,0.04236
669.0,0.0428
670.0,0.0424
671.0,0.04219
672.0,0.04166
673.0,0.04212
674.0,0.04175
675.0,0.04115
676.0,0.04123
677.0,0.04065
678.0,0.04058
679.0,0.03974
680.0,0.03986
681.0,0.03941
682.0,0.03916
683.0,0.03889
684.0,0.03849
685.0,0.03862
686.0,0.03821
687.0,0.02442
688.0,0.02885
689.0,0.02882
690.0,0.0302
691.0,0.0318
692.0,0.03294
693.0,0.03248
694.0,0.03199
695.0,0.03326
696.0,0.03313
697.0,0.03524
698.0,0.03452
699.0,0.0334
700.0,0.03283
701.0,0.03233
702.0,0.03245
703.0,0.03235
704.0,0.03328
705.0,0.03316
706.0,0.033
707.0,0.03288
708.0,0.03279
709.0,0.0327
710.0,0.03252
711.0,0.03237
712.0,0.03218
713.0,0.03168
714.0,0.03162
715.0,0.03043
716.0,0.0303
717.0,0.02576
718.0,0.02335
719.0,0.0211
720.0,0.0221
721.0,0.02455
722.0,0.0284
723.0,0.02605
724.0,0.0231
725.0,0.02261
726.0,0.02369
727.0,0.02389
728.0,0.02225
729.0,0.02309
730.0,0.02444
731.0,0.02317
732.0,0.02484
733.0,0.02633
734.0,0.02686
735.0,0.02616
736.0,0.02602
737.0,0.02599
738.0,0.02634
739.0,0.02568
740.0,0.02625
741.0,0.02588
742.0,0.02579
743.0,0.02631
744.0,0.0261
745.0,0.02599
746.0,0.02598
747.0,0.02592
748.0,0.02573
749.0,0.0253
750.0,0.02517
751.0,0.02481
752.0,0.0248
753.0,0.0248
754.0,0.02473
755.0,0.02448
756.0,0.02436
757.0,0.02428
758.0,0.02386
759.0,0.02323
760.0,0.003372
761.0,0.001717
762.0,0.01101
763.0,0.005193
764.0,0.00799
765.0,0.01084
766.0,0.01354
767.0,0.01734
768.0,0.02021
769.0,0.0206
770.0,0.02128
771.0,0.02139
772.0,0.02135
773.0,0.02138
774.0,0.02117
775.0,0.02092
776.0,0.02108
777.0,0.0207
778.0,0.02046
779.0,0.02038
780.0,0.02017
781.0,0.0201
782.0,0.02013
783.0,0.01969
784.0,0.01969
785.0,0.01946
786.0,0.01958
787.0,0.01912
788.0,0.01878
789.0,0.01867
790.0,0.01804
791.0,0.01816
792.0,0.01794
793.0,0.01756
794.0,0.01784
795.0,0.01804
796.0,0.01733
797.0,0.01729
798.0,0.01778
799.0,0.01757
800.0,0.01716
801.0,0.01701
802.0,0.01689
803.0,0.01668
804.0,0.01663
805.0,0.01652
806.0,0.01693
807.0,0.01664
808.0,0.01658
809.0,0.01618
810.0,0.01595
811.0,0.01588
812.0,0.0153
813.0,0.01487
814.0,0.01283
815.0,0.01268
816.0,0.01162
817.0,0.01181
818.0,0.0113
819.0,0.01277
820.0,0.01189
821.0,0.01413
822.0,0.01361
823.0,0.008756
824.0,0.01304
825.0,0.01359
826.0,0.01294
827.0,0.0137
828.0,0.01133
829.0,0.01271
830.0,0.01247
831.0,0.01247
832.0,0.01198
833.0,0.01287
834.0,0.01229
835.0,0.01358
836.0,0.01286
837.0,0.01351
838.0,0.013
839.0,0.01319
840.0,0.01343
841.0,0.01317
842.0,0.01315
843.0,0.01311
844.0,0.01286
845.0,0.01325
846.0,0.01314
847.0,0.01284
848.0,0.0127
849.0,0.01228
850.0,0.01171
851.0,0.01233
852.0,0.01219
853.0,0.01169
854.0,0.01004
855.0,0.011
856.0,0.01196
857.0,0.01219
858.0,0.01205
859.0,0.01201
860.0,0.01198
861.0,0.01186
862.0,0.01201
863.0,0.01224
864.0,0.01158
865.0,0.01144
866.0,0.01024
867.0,0.01064
868.0,0.01153
869.0,0.01124
870.0,0.01152
871.0,0.01131
872.0,0.01123
873.0,0.01116
874.0,0.01097
875.0,0.0107
876.0,0.01077
877.0,0.01083
878.0,0.0109
879.0,0.01069
880.0,0.01042
881.0,0.01021
882.0,0.01039
883.0,0.01039
884.0,0.01029
885.0,0.01032
886.0,0.009784
887.0,0.00986
888.0,0.009955
889.0,0.01004
890.0,0.009894
891.0,0.009848
892.0,0.009508
893.0,0.009136
894.0,0.008723
895.0,0.008138
896.0,0.00754
897.0,0.006316
898.0,0.006953
899.0,0.005055
900.0,0.007114
901.0,0.005343
902.0,0.006385
903.0,0.006399
904.0,0.008305
905.0,0.007943
906.0,0.007353
907.0,0.005755
908.0,0.005879
909.0,0.006442
910.0,0.005551
911.0,0.005955
912.0,0.006245
913.0,0.005567
914.0,0.005496
915.0,0.00602
916.0,0.004939
917.0,0.006501
918.0,0.005053
919.0,0.006572
920.0,0.006631
921.0,0.006949
922.0,0.00608
923.0,0.006657
924.0,0.006203
925.0,0.00602
926.0,0.006088
927.0,0.006883
928.0,0.004784
929.0,0.004298
930.0,0.003242
931.0,0.003035
932.0,0.002084
933.0,0.001642
934.0,0.0008392
935.0,0.001674
936.0,0.0009878
937.0,0.0009975
938.0,0.00125
939.0,0.002842
940.0,0.003504
941.0,0.00254
942.0,0.002983
943.0,0.00184
944.0,0.001948
945.0,0.002577
946.0,0.001197
947.0,0.002566
948.0,0.001801
949.0,0.003562
950.0,0.0008348
951.0,0.003478
952.0,0.001701
953.0,0.002269
954.0,0.00287
955.0,0.002297
956.0,0.0022
957.0,0.001675
958.0,0.003255
959.0,0.002485
960.0,0.002827
961.0,0.003216
962.0,0.003008
963.0,0.003537
964.0,0.003182
965.0,0.003497
966.0,0.003487
967.0,0.003451
968.0,0.00485
969.0,0.005087
970.0,0.004584
971.0,0.005358
972.0,0.005061
973.0,0.004288
974.0,0.004025
975.0,0.004181
976.0,0.003922
977.0,0.004552
978.0,0.004268
979.0,0.004496
980.0,0.00416
981.0,0.005127
982.0,0.004844
983.0,0.004605
984.0,0.005263
985.0,0.004775
986.0,0.005338
987.0,0.005194
988.0,0.005162
989.0,0.005273
990.0,0.005096
991.0,0.005242
992.0,0.005254
993.0,0.005099
994.0,0.005218
995.0,0.005195
996.0,0.005148
997.0,0.005137
998.0,0.005093
999.0,0.005057
1000.0,0.004998
1001.0,0.005048
1002.0,0.004868
1003.0,0.004919
1004.0,0.004774
1005.0,0.004589
1006.0,0.004745
1007.0,0.004829
1008.0,0.004781
1009.0,0.004733
1010.0,0.004693
1011.0,0.004733
1012.0,0.004669
1013.0,0.004688
1014.0,0.004638
1015.0,0.00459
1016.0,0.00455
1017.0,0.004544
1018.0,0.004511
1019.0,0.004389
1020.0,0.004451
1021.0,0.004429
1022.0,0.004374
1023.0,0.004404
1024.0,0.004323
1025.0,0.004372
1026.0,0.004335
1027.0,0.004308
1028.0,0.004283
1029.0,0.004217
1030.0,0.004233
1031.0,0.004198
1032.0,0.004171
1033.0,0.004092
1034.0,0.004076
1035.0,0.004073
1036.0,0.004078
1037.0,0.003997
1038.0,0.004
1039.0,0.003983
1040.0,0.003952
1041.0,0.003952
1042.0,0.003909
1043.0,0.003883
1044.0,0.003882
1045.0,0.003815
1046.0,0.003758
1047.0,0.003777
1048.0,0.003784
1049.0,0.003757
1050.0,0.003725
1051.0,0.003705
1052.0,0.003676
1053.0,0.003633
1054.0,0.003628
1055.0,0.003615
1056.0,0.003588
1057.0,0.003563
1058.0,0.003462
1059.0,0.003453
1060.0,0.003434
1061.0,0.003417
1062.0,0.003421
1063.0,0.003375
1064.0,0.003403
1065.0,0.003364
1066.0,0.003287
1067.0,0.003316
1068.0,0.00323
1069.0,0.00312
1070.0,0.003211
1071.0,0.003256
1072.0,0.003201
1073.0,0.003146
1074.0,0.003223
1075.0,0.003032
1076.0,0.003196
1077.0,0.003116
1078.0,0.003043
1079.0,0.003113
1080.0,0.003029
1081.0,0.002919
1082.0,0.002971
1083.0,0.002972
1084.0,0.002871
1085.0,0.002988
1086.0,0.002675
1087.0,0.002787
1088.0,0.002911
1089.0,0.002794
1090.0,0.002704
1091.0,0.002864
1092.0,0.00285
1093.0,0.002348
1094.0,0.002584
1095.0,0.002446
1096.0,0.002314
1097.0,0.002738
1098.0,0.00226
1099.0,0.002357
1100.0,0.002151
1101.0,0.002181
1102.0,0.002063
1103.0,0.002025
1104.0,0.002022
1105.0,0.002248
1106.0,0.001631
1107.0,0.002101
1108.0,0.001721
1109.0,0.001719
1110.0,0.002057
1111.0,0.001299
1112.0,0.00169
1113.0,0.0009932
1114.0,0.001124
1115.0,0.0009034
1116.0,0.0006938
1117.0,0.0002237
1118.0,0.0007597
1119.0,0.0003426
1120.0,0.000441
1121.0,0.0006053
1122.0,0.000228
1123.0,0.0003893
1124.0,0.0003216
1125.0,0.0004328
1126.0,0.000133
1127.0,0.0004911
1128.0,0.0002739
1129.0,0.0002921
1130.0,0.0001829
1131.0,0.001011
1132.0,0.0007612
1133.0,0.0004503
1134.0,9.88e-05
1135.0,3.494e-05
1136.0,0.0003622
1137.0,0.0009711
1138.0,0.000648
1139.0,0.001027
1140.0,0.0008308
1141.0,0.0006054
1142.0,0.0007085
1143.0,0.001059
1144.0,0.0003177
1145.0,0.0004151
1146.0,0.0004499
1147.0,0.0001395
1148.0,0.000881
1149.0,0.0006767
1150.0,0.0003376
1151.0,0.0006141
1152.0,0.000779
1153.0,0.0007544
1154.0,0.0003884
1155.0,0.001022
1156.0,0.000902
1157.0,0.001029
1158.0,0.001012
1159.0,0.001107
1160.0,0.0009179
1161.0,0.001171
1162.0,0.001169
1163.0,0.001659
1164.0,0.001382
1165.0,0.001285
1166.0,0.001272
1167.0,0.001399
1168.0,0.001413
1169.0,0.001453
1170.0,0.001591
1171.0,0.001538
1172.0,0.001565
1173.0,0.00157
1174.0,0.001057
1175.0,0.001525
1176.0,0.001693
1177.0,0.001609
1178.0,0.001149
1179.0,0.001691
1180.0,0.001474
1181.0,0.001526
1182.0,0.0009882
1183.0,0.001499
1184.0,0.001377
1185.0,0.001315
1186.0,0.0016
1187.0,0.001506
1188.0,0.000993
1189.0,0.001386
1190.0,0.001539
1191.0,0.001443
1192.0,0.001553
1193.0,0.001473
1194.0,0.001523
1195.0,0.001426
1196.0,0.00136
1197.0,0.00152
1198.0,0.001368
1199.0,0.001133
1200.0,0.001428
1201.0,0.001364
1202.0,0.001351
1203.0,0.001345
1204.0,0.001142
1205.0,0.001378
1206.0,0.001545
1207.0,0.001332
1208.0,0.001314
1209.0,0.001337
1210.0,0.001397
1211.0,0.001315
1212.0,0.001292
1213.0,0.001459
1214.0,0.00132
1215.0,0.001287
1216.0,0.00144
1217.0,0.001392
1218.0,0.001419
1219.0,0.001395
1220.0,0.001411
1221.0,0.001424
1222.0,0.001377
1223.0,0.001358
1224.0,0.001344
1225.0,0.001397
1226.0,0.001404
1227.0,0.001278
1228.0,0.001404
1229.0,0.001391
1230.0,0.00136
1231.0,0.001401
1232.0,0.001388
1233.0,0.001328
1234.0,0.001388
1235.0,0.001373
1236.0,0.00138
1237.0,0.001354
1238.0,0.001366
1239.0,0.001344
1240.0,0.001345
1241.0,0.001333
1242.0,0.001327
1243.0,0.001312
1244.0,0.001316
1245.0,0.001318
1246.0,0.001306
1247.0,0.001296
1248.0,0.00129
1249.0,0.001291
1250.0,0.001278
1251.0,0.001257
1252.0,0.001255
1253.0,0.001238
1254.0,0.00122
1255.0,0.001241
1256.0,0.001197
1257.0,0.001186
1258.0,0.001208
1259.0,0.001154
1260.0,0.001157
1261.0,0.00108
1262.0,0.001041
1263.0,0.001039
1264.0,0.0009467
1265.0,0.001027
1266.0,0.0009796
1267.0,0.0009978
1268.0,0.0009368
1269.0,0.0005414
1270.0,0.0009846
1271.0,0.001049
1272.0,0.00105
1273.0,0.001035
1274.0,0.001036
1275.0,0.001049
1276.0,0.001058
1277.0,0.001062
1278.0,0.001083
1279.0,0.00107
1280.0,0.001053
1281.0,0.001003
1282.0,0.0009661
1283.0,0.001037
1284.0,0.001058
1285.0,0.001062
1286.0,0.001074
1287.0,0.001051
1288.0,0.001048
1289.0,0.001007
1290.0,0.001033
1291.0,0.001045
1292.0,0.0009681
1293.0,0.001015
1294.0,0.001004
1295.0,0.0009947
1296.0,0.0009398
1297.0,0.0008794
1298.0,0.000955
1299.0,0.000998
1300.0,0.0008201
1301.0,0.0008478
1302.0,0.0009414
1303.0,0.0008023
1304.0,0.0006654
1305.0,0.00091
1306.0,0.0009076
1307.0,0.0006749
1308.0,0.0007904
1309.0,0.000892
1310.0,0.0006545
1311.0,0.0007467
1312.0,0.0007244
1313.0,0.0007048
1314.0,0.0006165
1315.0,0.000609
1316.0,0.0007237
1317.0,0.0006765
1318.0,0.0007437
1319.0,0.0005566
1320.0,0.0005345
1321.0,0.0006369
1322.0,0.0006425
1323.0,0.0004609
1324.0,0.0005361
1325.0,0.0006921
1326.0,0.0005781
1327.0,0.0005455
1328.0,0.0004584
1329.0,0.0003297
1330.0,0.0004445
1331.0,0.0002487
1332.0,0.0002573
1333.0,0.0003741
1334.0,0.0003074
1335.0,0.0004431
1336.0,0.0003369
1337.0,0.0002918
1338.0,0.0003187
1339.0,0.0003167
1340.0,0.0003051
1341.0,0.0002963
1342.0,0.0003125
1343.0,0.0002002
1344.0,0.0001123
1345.0,0.0001686
1346.0,7.74e-05
1347.0,7.858e-05
1348.0,4.337e-06
1349.0,1.64e-05
1350.0,1.702e-05
1351.0,3.893e-06
1352.0,1.018e-06
1353.0,5.044e-08
1354.0,1.746e-07
1355.0,1.386e-09
1356.0,2.437e-08
1357.0,3.707e-08
1358.0,1.627e-09
1359.0,2.048e-10
1360.0,7.404e-10
1361.0,8.272e-13
1362.0,2.263e-15
1363.0,9.958e-10
1364.0,4.109e-10
1365.0,7.9e-16
1366.0,4.322e-09
1367.0,1.762e-09
1368.0,6.1e-18
1369.0,1.513e-10
1370.0,7.452e-11
1371.0,4.223e-12
1372.0,9.552e-10
1373.0,1.933e-08
1374.0,9.02e-08
1375.0,1.643e-07
1376.0,1.471e-07
1377.0,6.688e-08
1378.0,6.674e-07
1379.0,2.784e-08
1380.0,4.008e-08
1381.0,1.037e-09
1382.0,8.37e-10
1383.0,1.25e-11
1384.0,1.639e-10
1385.0,7.844e-10
1386.0,7.379e-10
1387.0,9.024e-08
1388.0,1.756e-09
1389.0,3.074e-07
1390.0,2.635e-07
1391.0,1.746e-07
1392.0,1.118e-08
1393.0,5.955e-08
1394.0,3.063e-08
1395.0,2.229e-10
1396.0,1.077e-12
1397.0,2.336e-08
1398.0,7.085e-07
1399.0,4.454e-07
1400.0,4.603e-13
1401.0,1.91e-12
1402.0,1.25e-06
1403.0,1.574e-06
1404.0,4.691e-07
1405.0,1.055e-10
1406.0,1.231e-06
1407.0,1.055e-07
1408.0,9.977e-07
1409.0,3.279e-07
1410.0,2.618e-07
1411.0,1.349e-06
1412.0,1.83e-06
1413.0,2.08e-05
1414.0,2.039e-07
1415.0,9.69e-08
1416.0,3.54e-05
1417.0,9.762e-06
1418.0,1.113e-05
1419.0,1.612e-06
1420.0,6.619e-06
1421.0,7.164e-06
1422.0,4.645e-05
1423.0,8.073e-06
1424.0,1.56e-05
1425.0,2.333e-05
1426.0,2.69e-05
1427.0,5.232e-05
1428.0,3.21e-06
1429.0,3.768e-05
1430.0,6.783e-05
1431.0,7.519e-05
1432.0,2.477e-06
1433.0,4.529e-05
1434.0,2.173e-05
1435.0,2.108e-05
1436.0,4.345e-05
1437.0,3.254e-05
1438.0,1.276e-05
1439.0,6.063e-05
1440.0,4.428e-05
1441.0,3.238e-05
1442.0,3.619e-05
1443.0,4.691e-05
1444.0,6.722e-05
1445.0,5.048e-05
1446.0,2.113e-05
1447.0,3.436e-05
1448.0,0.0001365
1449.0,0.0001154
1450.0,2.479e-05
1451.0,9.293e-06
1452.0,6.451e-05
1453.0,8.735e-05
1454.0,0.0001637
1455.0,6.929e-05
1456.0,9.523e-05
1457.0,0.0001341
1458.0,0.0001632
1459.0,0.0001966
1460.0,9.307e-05
1461.0,9.635e-05
1462.0,0.0001498
1463.0,4.177e-05
1464.0,0.0001827
1465.0,0.0001027
1466.0,6.549e-05
1467.0,3.175e-05
1468.0,7.884e-05
1469.0,9.994e-05
1470.0,4.497e-05
1471.0,1.485e-05
1472.0,4.261e-05
1473.0,6.889e-05
1474.0,0.0001064
1475.0,0.0002217
1476.0,6.842e-05
1477.0,6.848e-05
1478.0,6.343e-05
1479.0,0.0001327
1480.0,5.778e-05
1481.0,0.0001252
1482.0,5.638e-05
1483.0,0.0001687
1484.0,0.0001561
1485.0,0.0001358
1486.0,0.0001328
1487.0,5.464e-05
1488.0,0.0001041
1489.0,0.0002251
1490.0,0.0002049
1491.0,0.0002371
1492.0,0.0001881
1493.0,0.0002104
1494.0,0.0002417
1495.0,0.0002106
1496.0,0.0001949
1497.0,0.0002814
1498.0,0.0002213
1499.0,0.0002647
1500.0,0.0003109
1501.0,0.0003292
1502.0,0.0002714
1503.0,0.0002245
1504.0,0.0001738
1505.0,0.0002148
1506.0,0.0003259
1507.0,0.0003106
1508.0,0.0002936
1509.0,0.0002143
1510.0,0.0003359
1511.0,0.0003227
1512.0,0.0003192
1513.0,0.0002887
1514.0,0.0002664
1515.0,0.0003265
1516.0,0.00031
1517.0,0.0003013
1518.0,0.0002995
1519.0,0.0002914
1520.0,0.0003163
1521.0,0.0003394
1522.0,0.0003201
1523.0,0.0003429
1524.0,0.0003312
1525.0,0.000314
1526.0,0.0003184
1527.0,0.0003145
1528.0,0.0003369
1529.0,0.0003184
1530.0,0.0003117
1531.0,0.0003198
1532.0,0.000333
1533.0,0.0003324
1534.0,0.0003256
1535.0,0.0003228
1536.0,0.0003285
1537.0,0.0003202
1538.0,0.0003233
1539.0,0.0003168
1540.0,0.0003173
1541.0,0.0003187
1542.0,0.0003142
1543.0,0.0003193
1544.0,0.0003145
1545.0,0.0003202
1546.0,0.0003143
1547.0,0.0003093
1548.0,0.0003086
1549.0,0.0003107
1550.0,0.0003078
1551.0,0.0003092
1552.0,0.0003059
1553.0,0.0003035
1554.0,0.0003001
1555.0,0.0003002
1556.0,0.0002992
1557.0,0.0003021
1558.0,0.0002997
1559.0,0.0002971
1560.0,0.0002985
1561.0,0.0002999
1562.0,0.0002954
1563.0,0.0002924
1564.0,0.0002931
1565.0,0.000293
1566.0,0.0002884
1567.0,0.0002883
1568.0,0.0002847
1569.0,0.000286
1570.0,0.0002879
1571.0,0.0002896
1572.0,0.0002872
1573.0,0.0002847
1574.0,0.0002739
1575.0,0.00027
1576.0,0.0002652
1577.0,0.0002578
1578.0,0.00027
1579.0,0.0002718
1580.0,0.0002736
1581.0,0.000269
1582.0,0.000263
1583.0,0.0002636
1584.0,0.0002679
1585.0,0.0002702
1586.0,0.0002664
1587.0,0.0002615
1588.0,0.0002536
1589.0,0.0002452
1590.0,0.0002501
1591.0,0.0002557
1592.0,0.0002626
1593.0,0.0002662
1594.0,0.000265
1595.0,0.000261
1596.0,0.0002527
1597.0,0.0002585
1598.0,0.0002616
1599.0,0.0002581
1600.0,0.0002558
1601.0,0.0002516
1602.0,0.0002517
1603.0,0.0002536
1604.0,0.0002511
1605.0,0.0002503
1606.0,0.0002468
1607.0,0.0002484
1608.0,0.0002476
1609.0,0.0002405
1610.0,0.0002349
1611.0,0.0002385
1612.0,0.0002408
1613.0,0.0002406
1614.0,0.00024
1615.0,0.0002341
1616.0,0.00023
1617.0,0.0002339
1618.0,0.0002374
1619.0,0.0002324
1620.0,0.000227
1621.0,0.000229
1622.0,0.000232
1623.0,0.0002348
1624.0,0.0002315
1625.0,0.00023
1626.0,0.00023
1627.0,0.0002312
1628.0,0.00023
1629.0,0.0002274
1630.0,0.0002255
1631.0,0.0002236
1632.0,0.0002226
1633.0,0.0002151
1634.0,0.0002197
1635.0,0.0002159
1636.0,0.0002137
1637.0,0.000211
1638.0,0.0001977
1639.0,0.0002054
1640.0,0.0001955
1641.0,0.0002028
1642.0,0.0002065
1643.0,0.0001937
1644.0,0.0002055
1645.0,0.0001987
1646.0,0.0001931
1647.0,0.0002072
1648.0,0.0001915
1649.0,0.000201
1650.0,0.0002021
1651.0,0.000186
1652.0,0.000199
1653.0,0.0002004
1654.0,0.0001886
1655.0,0.0001994
1656.0,0.0001954
1657.0,0.0001965
1658.0,0.0001987
1659.0,0.0001967
1660.0,0.0001979
1661.0,0.0001963
1662.0,0.0001901
1663.0,0.0001944
1664.0,0.0001921
1665.0,0.0001802
1666.0,0.0001446
1667.0,0.0001776
1668.0,0.0001843
1669.0,0.000185
1670.0,0.000188
1671.0,0.000182
1672.0,0.0001794
1673.0,0.0001832
1674.0,0.0001785
1675.0,0.0001753
1676.0,0.0001762
1677.0,0.0001754
1678.0,0.0001696
1679.0,0.0001733
1680.0,0.0001658
1681.0,0.0001601
1682.0,0.0001689
1683.0,0.0001721
1684.0,0.0001579
1685.0,0.0001732
1686.0,0.0001723
1687.0,0.0001649
1688.0,0.0001704
1689.0,0.000168
1690.0,0.000167
1691.0,0.0001505
1692.0,0.0001653
1693.0,0.00017
1694.0,0.0001627
1695.0,0.0001673
1696.0,0.0001668
1697.0,0.0001377
1698.0,0.0001644
1699.0,0.0001617
1700.0,0.0001567
1702.0,0.0001591
1705.0,0.0001528
1710.0,0.0001426
1715.0,0.0001411
1720.0,0.0001381
1725.0,0.0001267
1730.0,0.0001239
1735.0,0.0001141
1740.0,0.0001145
1745.0,0.0001054
1750.0,0.0001126
1755.0,0.0001014
1760.0,0.0001056
1765.0,8.321e-05
1770.0,8.903e-05
1775.0,6.859e-05
1780.0,5.7e-05
1785.0,4.082e-05
1790.0,4.783e-05
1795.0,2.142e-05
1800.0,1.418e-05
1805.0,5.264e-06
1810.0,3.325e-06
1815.0,9.16e-07
1820.0,2.213e-07
1825.0,2.903e-07
1830.0,6.776e-10
1835.0,1.026e-09
1840.0,5.972e-12
1845.0,6.402e-10
1850.0,2.887e-10
1855.0,2.755e-11
1860.0,1.584e-09
1865.0,2.21e-09
1870.0,1.203e-14
1875.0,2.174e-14
1880.0,1.17e-08
1885.0,6.217e-09
1890.0,3.443e-08
1895.0,1.989e-08
1900.0,8.4e-11
1905.0,5.72e-11
1910.0,2.782e-09
1915.0,2.709e-09
1920.0,7.235e-08
1925.0,1.718e-07
1930.0,9.848e-08
1935.0,7.821e-07
1940.0,7.76e-07
1945.0,3.41e-06
1950.0,6.924e-06
1955.0,6.144e-06
1960.0,1.135e-05
1965.0,1.714e-05
1970.0,2.495e-05
1975.0,2.856e-05
1980.0,2.86e-05
1985.0,3.089e-05
1990.0,3.182e-05
1995.0,3.36e-05
2000.0,3.529e-05
2005.0,2.895e-05
2010.0,4.271e-05
2015.0,3.245e-05
2020.0,3.471e-05
2025.0,3.773e-05
2030.0,3.404e-05
2035.0,3.706e-05
2040.0,3.479e-05
2045.0,3.565e-05
2050.0,3.59e-05
2055.0,3.397e-05
2060.0,3.248e-05
2065.0,3.281e-05
2070.0,3.206e-05
2075.0,3.256e-05
2080.0,3.139e-05
2085.0,3.092e-05
2090.0,3.101e-05
2095.0,2.976e-05
2100.0,2.735e-05
2105.0,2.951e-05
2110.0,2.797e-05
2115.0,2.848e-05
2120.0,2.641e-05
2125.0,2.663e-05
2130.0,2.676e-05
2135.0,2.676e-05
2140.0,2.675e-05
2145.0,2.623e-05
2150.0,2.425e-05
2155.0,2.405e-05
2160.0,2.359e-05
2165.0,2.124e-05
2170.0,2.251e-05
2175.0,2.172e-05
2180.0,2.217e-05
2185.0,1.948e-05
2190.0,2.099e-05
2195.0,2.06e-05
2200.0,1.779e-05
2205.0,1.868e-05
2210.0,2.024e-05
2215.0,1.909e-05
2220.0,1.937e-05
2225.0,1.857e-05
2230.0,1.85e-05
2235.0,1.783e-05
2240.0,1.744e-05
2245.0,1.652e-05
2250.0,1.671e-05
2255.0,1.533e-05
2260.0,1.489e-05
2265.0,1.515e-05
2270.0,1.403e-05
2275.0,1.367e-05
2280.0,1.429e-05
2285.0,1.317e-05
2290.0,1.306e-05
2295.0,1.259e-05
2300.0,1.177e-05
2305.0,1.177e-05
2310.0,1.296e-05
2315.0,1.136e-05
2320.0,9.737e-06
2325.0,1.094e-05
2330.0,1.085e-05
2335.0,1.106e-05
2340.0,8.217e-06
2345.0,9.353e-06
2350.0,7.146e-06
2355.0,8.42e-06
2360.0,8.934e-06
2365.0,8.734e-06
2370.0,4.756e-06
2375.0,7.478e-06
2380.0,7.06e-06
2385.0,4.813e-06
2390.0,5.803e-06
2395.0,6.43e-06
2400.0,7.067e-06
2405.0,5.124e-06
2410.0,5.093e-06
2415.0,3.95e-06
2420.0,3.779e-06
2425.0,4.831e-06
2430.0,6.801e-06
2435.0,1.88e-06
2440.0,6.469e-06
2445.0,2.698e-06
2450.0,1.638e-06
2455.0,3.276e-06
2460.0,4.517e-06
2465.0,3.053e-06
2470.0,1.954e-06
2475.0,1.887e-06
2480.0,8.406e-07
2485.0,5.367e-07
2490.0,3.021e-07
2495.0,2.6e-07
2500.0,6.698e-07
2505.0,1.287e-07
2510.0,1.914e-07
2515.0,3.924e-08
2520.0,2.195e-08
2525.0,2.461e-09
2530.0,1.699e-11
2535.0,3.757e-12
2540.0,8.915e-12
2545.0,6.908e-16
2550.0,2.801e-18
2555.0,1.344e-14
2560.0,4.034e-16
2565.0,9.033e-20
2570.0,2.689e-24
2575.0,1.701e-34
2580.0,1.774e-28
2585.0,3.708e-42
2590.0,2.314e-38
2595.0,4.501e-40
2600.0,3.705e-35
2605.0,4.0960000000000006e-42
2610.0,1.41e-41
2615.0,1.4009999999999999e-45
2620.0,1.2420000000000001e-35
2625.0,2.275e-35
2630.0,0.0
2635.0,1.185e-21
2640.0,2.5639999999999996e-22
2645.0,1.118e-24
2650.0,1.113e-25
2655.0,1.339e-34
2660.0,1.127e-31
2665.0,1.121e-44
2670.0,0.0
2675.0,5.464999999999999e-44
2680.0,2.285e-30
2685.0,2.183e-31
2690.0,8.168e-31
2695.0,3.205e-33
2700.0,9.334999999999999e-29
2705.0,2.6470000000000003e-26
2710.0,2.1080000000000002e-31
2715.0,2.6619999999999997e-29
2720.0,0.0
2725.0,5.96e-27
2730.0,1.738e-24
2735.0,1.9810000000000003e-26
2740.0,3.579e-32
2745.0,4.614e-27
2750.0,2.586e-26
2755.0,4.162e-28
2760.0,6.234e-23
2765.0,2.926e-29
2770.0,1.4380000000000002e-26
2775.0,1.7749999999999998e-23
2780.0,8.264e-21
2785.0,3.1030000000000003e-20
2790.0,7.075e-18
2795.0,1.556e-18
2800.0,4.968e-15
2805.0,9.29e-17
2810.0,3.725e-13
2815.0,1.111e-13
2820.0,1.358e-15
2825.0,1.192e-11
2830.0,2.591e-10
2835.0,3.567e-15
2840.0,7.633e-12
2845.0,2.646e-09
2850.0,4.573e-11
2855.0,1.827e-11
2860.0,9.503e-10
2865.0,7.015e-09
2870.0,1.776e-10
2875.0,1.709e-08
2880.0,1.076e-08
2885.0,1.774e-08
2890.0,7.533e-09
2895.0,1.291e-07
2900.0,3.587e-08
2905.0,4.141e-09
2910.0,1.317e-07
2915.0,5.574e-08
2920.0,1.387e-07
2925.0,4.93e-08
2930.0,3.003e-07
2935.0,3.314e-07
2940.0,7.374e-08
2945.0,6.331e-08
2950.0,2.569e-07
2955.0,1.14e-07
2960.0,2.269e-07
2965.0,3.851e-07
2970.0,1.494e-08
2975.0,3.79e-08
2980.0,5.905e-08
2985.0,3.5e-07
2990.0,5.319e-07
2995.0,2.008e-07
3000.0,3.832e-07
3005.0,1.297e-07
3010.0,3.354e-07
3015.0,2.597e-07
3020.0,2.326e-08
3025.0,3.589e-07
3030.0,2.824e-07
3035.0,1.068e-07
3040.0,8.339e-08
3045.0,1.798e-07
3050.0,4.05e-08
3055.0,9.877e-09
3060.0,2.813e-07
3065.0,1.184e-07
3070.0,6.637e-08
3075.0,2.623e-07
3080.0,1.519e-07
3085.0,6.677e-08
3090.0,9.098e-08
3095.0,2.225e-08
3100.0,1.829e-07
3105.0,3.394e-08
3110.0,2.84e-08
3115.0,8.573e-08
3120.0,4.268e-07
3125.0,1.237e-07
3130.0,2.475e-07
3135.0,5.016e-07
3140.0,1.313e-07
3145.0,1.287e-07
3150.0,2.742e-07
3155.0,2.304e-07
3160.0,3.854e-07
3165.0,6.108e-07
3170.0,5.403e-07
3175.0,3.775e-07
3180.0,4.47e-07
3185.0,3.113e-07
3190.0,1.615e-07
3195.0,8.92e-08
3200.0,1.242e-08
3205.0,8.102e-09
3210.0,3.367e-09
3215.0,1.376e-08
3220.0,4.871e-08
3225.0,5.535e-09
3230.0,9.21e-09
3235.0,2.674e-07
3240.0,1.201e-07
3245.0,2.239e-08
3250.0,8.369e-08
3255.0,3.685e-07
3260.0,3.55e-08
3265.0,7.76e-08
3270.0,3.621e-08
3275.0,2.237e-07
3280.0,9.391e-08
3285.0,4.199e-07
3290.0,3.138e-07
3295.0,3.728e-08
3300.0,5.567e-08
3305.0,1.295e-07
3310.0,1.23e-07
3315.0,1.717e-10
3320.0,1.085e-09
3325.0,1.031e-07
3330.0,1.577e-07
3335.0,3.101e-07
3340.0,1.117e-07
3345.0,1.084e-07
3350.0,2.746e-07
3355.0,1.094e-07
3360.0,1.689e-07
3365.0,2.393e-07
3370.0,1.143e-07
3375.0,2.809e-07
3380.0,1.509e-07
3385.0,2.405e-07
3390.0,3.174e-07
3395.0,3.07e-07
3400.0,4.161e-07
3405.0,1.248e-07
3410.0,2.208e-07
3415.0,2.146e-07
3420.0,4.32e-07
3425.0,3.078e-07
3430.0,2.591e-07
3435.0,3.709e-07
3440.0,2.362e-07
3445.0,3.539e-07
3450.0,3.455e-07
3455.0,2.452e-07
3460.0,3.94e-07
3465.0,2.906e-07
3470.0,3.812e-07
3475.0,3.304e-07
3480.0,3.384e-07
3485.0,3.686e-07
3490.0,3.069e-07
3495.0,3.706e-07
3500.0,3.578e-07
3505.0,3.525e-07
3510.0,3.571e-07
3515.0,3.405e-07
3520.0,3.638e-07
3525.0,3.383e-07
3530.0,3.278e-07
3535.0,2.67e-07
3540.0,2.525e-07
3545.0,2.68e-07
3550.0,3.031e-07
3555.0,2.532e-07
3560.0,3.103e-07
3565.0,3.097e-07
3570.0,2.313e-07
3575.0,2.392e-07
3580.0,2.895e-07
3585.0,2.517e-07
3590.0,2.629e-07
3595.0,2.687e-07
3600.0,2.876e-07
3605.0,2.869e-07
3610.0,2.59e-07
3615.0,2.591e-07
3620.0,3.249e-07
3625.0,2.765e-07
3630.0,2.685e-07
3635.0,2.769e-07
3640.0,3.132e-07
3645.0,2.809e-07
3650.0,2.662e-07
3655.0,2.915e-07
3660.0,2.885e-07
3665.0,2.65e-07
3670.0,1.97e-07
3675.0,1.099e-07
3680.0,2.048e-07
3685.0,2.367e-07
3690.0,2.445e-07
3695.0,2.555e-07
3700.0,2.777e-07
3705.0,2.722e-07
3710.0,2.31e-07
3715.0,2.265e-07
3720.0,2.601e-07
3725.0,2.674e-07
3730.0,2.26e-07
3735.0,2.035e-07
3740.0,2.096e-07
3745.0,2.495e-07
3750.0,2.226e-07
3755.0,2.14e-07
3760.0,2.098e-07
3765.0,2.005e-07
3770.0,2.164e-07
3775.0,2.129e-07
3780.0,2.268e-07
3785.0,2.042e-07
3790.0,1.764e-07
3795.0,2.052e-07
3800.0,2.333e-07
3805.0,2.164e-07
3810.0,1.874e-07
3815.0,1.732e-07
3820.0,2.239e-07
3825.0,2.177e-07
3830.0,2.207e-07
3835.0,1.684e-07
3840.0,2.028e-07
3845.0,1.962e-07
3850.0,1.97e-07
3855.0,1.867e-07
3860.0,1.718e-07
3865.0,1.727e-07
3870.0,1.533e-07
3875.0,1.367e-07
3880.0,1.308e-07
3885.0,1.358e-07
3890.0,1.375e-07
3895.0,1.529e-07
3900.0,1.638e-07
3905.0,1.626e-07
3910.0,1.422e-07
3915.0,1.376e-07
3920.0,1.369e-07
3925.0,1.337e-07
3930.0,1.386e-07
3935.0,1.451e-07
3940.0,1.467e-07
3945.0,1.492e-07
3950.0,1.515e-07
3955.0,1.528e-07
3960.0,1.538e-07
3965.0,1.547e-07
3970.0,1.523e-07
3975.0,1.471e-07
3980.0,1.441e-07
3985.0,1.442e-07
3990.0,1.416e-07
3995.0,1.375e-07
4000.0,1.31e-07
