interpolation:linear
wavelength,value
280.0,6.1729999999999995e-22
280.5,2.0060000000000003e-20
281.0,1.071e-19
281.5,4.997e-19
282.0,8.294e-19
282.5,2.052e-18
283.0,6.462e-18
283.5,1.05e-17
284.0,1.71e-16
284.5,4.962e-16
285.0,8.92e-16
285.5,4.374e-15
286.0,1.755e-14
286.5,7.832e-14
287.0,2.234e-13
287.5,8.555e-13
288.0,2.79e-12
288.5,8.559e-12
289.0,2.298e-11
289.5,6.975e-11
290.0,1.941e-10
290.5,3.963e-10
291.0,8.515e-10
291.5,2.446e-09
292.0,5.916e-09
292.5,8.185e-09
293.0,1.727e-08
293.5,4.119e-08
294.0,6.365e-08
294.5,8.433e-08
295.0,1.413e-07
295.5,2.674e-07
296.0,5.123e-07
296.5,7.315e-07
297.0,1.009e-06
297.5,2.799e-06
298.0,4.563e-06
298.5,4.728e-06
299.0,1.077e-05
299.5,1.914e-05
300.0,2.199e-05
300.5,3.351e-05
301.0,6.676e-05
301.5,0.0001182
302.0,0.0001075
302.5,0.0002135
303.0,0.0003927
303.5,0.0005045
304.0,0.0004856
304.5,0.0007758
305.0,0.001299
305.5,0.001586
306.0,0.001572
306.5,0.002041
307.0,0.003336
307.5,0.004879
308.0,0.005225
308.5,0.006468
309.0,0.006669
309.5,0.00801
310.0,0.008223
310.5,0.01345
311.0,0.01717
311.5,0.01668
312.0,0.01739
312.5,0.02174
313.0,0.0239
313.5,0.0228
314.0,0.0295
314.5,0.02743
315.0,0.03627
315.5,0.02951
316.0,0.02679
316.5,0.03981
317.0,0.04925
317.5,0.05057
318.0,0.04035
318.5,0.05251
319.0,0.06376
319.5,0.04974
320.0,0.05956
320.5,0.07828
321.0,0.07295
321.5,0.07009
322.0,0.07072
322.5,0.06151
323.0,0.06318
323.5,0.07977
324.0,0.09331
324.5,0.09333
325.0,0.07907
325.5,0.1043
326.0,0.1277
326.5,0.1298
327.0,0.1281
327.5,0.1224
328.0,0.1065
328.5,0.1145
329.0,0.1398
329.5,0.1594
330.0,0.1594
330.5,0.125
331.0,0.1262
331.5,0.1296
332.0,0.1424
332.5,0.1418
333.0,0.1402
333.5,0.1246
334.0,0.127
334.5,0.1487
335.0,0.1408
335.5,0.1656
336.0,0.1143
336.5,0.1314
337.0,0.1067
337.5,0.1319
338.0,0.1303
338.5,0.1515
339.0,0.1492
339.5,0.1434
340.0,0.1666
340.5,0.1499
341.0,0.1467
341.5,0.1339
342.0,0.1595
342.5,0.1487
343.0,0.1633
343.5,0.1535
344.0,0.1127
344.5,0.1143
345.0,0.1502
345.5,0.1527
346.0,0.1293
346.5,0.1459
347.0,0.1564
347.5,0.1261
348.0,0.1432
348.5,0.1426
349.0,0.1319
349.5,0.1302
350.0,0.1606
350.5,0.1688
351.0,0.1504
351.5,0.146
352.0,0.1562
352.5,0.1214
353.0,0.1524
353.5,0.1625
354.0,0.1682
354.5,0.17
355.0,0.169
355.5,0.1522
356.0,0.1587
356.5,0.1351
357.0,0.1113
357.5,0.1358
358.0,0.1073
358.5,0.09142
359.0,0.1275
359.5,0.1619
360.0,0.1711
360.5,0.1364
361.0,0.1239
361.5,0.1423
362.0,0.1226
362.5,0.1692
363.0,0.1515
363.5,0.1391
364.0,0.1696
364.5,0.1446
365.0,0.1468
365.5,0.1836
366.0,0.1939
366.5,0.1817
367.0,0.1764
367.5,0.1825
368.0,0.1592
368.5,0.1601
369.0,0.1724
369.5,0.1831
370.0,0.1946
370.5,0.1506
371.0,0.1604
371.5,0.2
372.0,0.1323
372.5,0.1582
373.0,0.1604
373.5,0.104
374.0,0.1507
374.5,0.1244
375.0,0.1205
375.5,0.1794
376.0,0.1482
376.5,0.1531
377.0,0.1616
377.5,0.1885
378.0,0.2036
378.5,0.1918
379.0,0.1578
379.5,0.1436
380.0,0.1488
380.5,0.1796
381.0,0.1794
381.5,0.1417
382.0,0.1254
382.5,0.1066
383.0,0.09833
383.5,0.09441
384.0,0.1038
384.5,0.1522
385.0,0.1504
385.5,0.1396
386.0,0.1192
386.5,0.156
387.0,0.1292
387.5,0.1447
388.0,0.1331
388.5,0.1311
389.0,0.1411
389.5,0.1703
390.0,0.1703
390.5,0.1562
391.0,0.1833
391.5,0.1863
392.0,0.1564
392.5,0.1395
393.0,0.07737
393.5,0.05606
394.0,0.1137
394.5,0.1441
395.0,0.1752
395.5,0.1774
396.0,0.1533
396.5,0.0893
397.0,0.06679
397.5,0.1354
398.0,0.1889
398.5,0.1946
399.0,0.2101
399.5,0.2087
400.0,0.2159
401.0,0.2122
402.0,0.2223
403.0,0.2097
404.0,0.2051
405.0,0.2037
406.0,0.1989
407.0,0.1943
408.0,0.2005
409.0,0.2131
410.0,0.185
411.0,0.199
412.0,0.2123
413.0,0.2057
414.0,0.2067
415.0,0.2058
416.0,0.2079
417.0,0.2013
418.0,0.1962
419.0,0.1974
420.0,0.1951
421.0,0.2027
422.0,0.1912
423.0,0.1854
424.0,0.1946
425.0,0.1928
426.0,0.1865
427.0,0.1818
428.0,0.1759
429.0,0.1655
430.0,0.1438
431.0,0.1415
432.0,0.1813
433.0,0.1809
434.0,0.1668
435.0,0.173
436.0,0.1936
437.0,0.1897
438.0,0.1715
439.0,0.1761
440.0,0.1803
441.0,0.1854
442.0,0.1973
443.0,0.1908
444.0,0.1936
445.0,0.1882
446.0,0.1784
447.0,0.1915
448.0,0.193
449.0,0.1923
450.0,0.1962
451.0,0.2019
452.0,0.1932
453.0,0.1805
454.0,0.1871
455.0,0.1868
456.0,0.1898
457.0,0.1913
458.0,0.1833
459.0,0.1808
460.0,0.1798
461.0,0.1825
462.0,0.1827
463.0,0.1803
464.0,0.1764
465.0,0.1731
466.0,0.1736
467.0,0.1691
468.0,0.1697
469.0,0.1691
470.0,0.1626
471.0,0.1613
472.0,0.1688
473.0,0.1654
474.0,0.1644
475.0,0.1645
476.0,0.1582
477.0,0.1572
478.0,0.1601
479.0,0.1577
480.0,0.1566
481.0,0.1581
482.0,0.1577
483.0,0.1547
484.0,0.1506
485.0,0.1426
486.0,0.1239
487.0,0.129
488.0,0.1405
489.0,0.1398
490.0,0.1459
491.0,0.1423
492.0,0.1334
493.0,0.1367
494.0,0.1371
495.0,0.1373
496.0,0.1371
497.0,0.138
498.0,0.1304
499.0,0.1308
500.0,0.1258
501.0,0.1223
502.0,0.1194
503.0,0.123
504.0,0.1187
505.0,0.1221
506.0,0.1252
507.0,0.1183
508.0,0.1139
509.0,0.1164
510.0,0.1151
511.0,0.1175
512.0,0.1179
513.0,0.1107
514.0,0.1091
515.0,0.1072
516.0,0.1061
517.0,0.09361
518.0,0.0977
519.0,0.1017
520.0,0.1046
521.0,0.1047
522.0,0.1039
523.0,0.1013
524.0,0.104
525.0,0.1043
526.0,0.0988
527.0,0.09223
528.0,0.09664
529.0,0.101
530.0,0.09878
531.0,0.09944
532.0,0.09529
533.0,0.09185
534.0,0.09393
535.0,0.09537
536.0,0.09563
537.0,0.09126
538.0,0.09223
539.0,0.09085
540.0,0.08649
541.0,0.08638
542.0,0.08836
543.0,0.08677
544.0,0.08766
545.0,0.08682
546.0,0.08655
547.0,0.0859
548.0,0.08427
549.0,0.08396
550.0,0.08438
551.0,0.08276
552.0,0.08274
553.0,0.08068
554.0,0.08202
555.0,0.08158
556.0,0.0799
557.0,0.0768
558.0,0.07557
559.0,0.07352
560.0,0.07382
561.0,0.07414
562.0,0.07297
563.0,0.07434
564.0,0.07176
565.0,0.07061
566.0,0.06904
567.0,0.06979
568.0,0.06861
569.0,0.06641
570.0,0.06593
571.0,0.06508
572.0,0.06609
573.0,0.06635
574.0,0.06574
575.0,0.06411
576.0,0.06316
577.0,0.06349
578.0,0.06223
579.0,0.0622
580.0,0.06312
581.0,0.06315
582.0,0.06404
583.0,0.06391
584.0,0.06417
585.0,0.06227
586.0,0.0606
587.0,0.0615
588.0,0.05954
589.0,0.0522
590.0,0.05428
591.0,0.05721
592.0,0.05601
593.0,0.05652
594.0,0.05566
595.0,0.0538
596.0,0.05571
597.0,0.05467
598.0,0.05416
599.0,0.05383
600.0,0.05358
601.0,0.05284
602.0,0.05217
603.0,0.05274
604.0,0.05332
605.0,0.05279
606.0,0.05235
607.0,0.05265
608.0,0.05185
609.0,0.05172
610.0,0.05116
611.0,0.05123
612.0,0.05088
613.0,0.05003
614.0,0.04914
615.0,0.05001
616.0,0.04816
617.0,0.04787
618.0,0.0495
619.0,0.04878
620.0,0.04886
621.0,0.04866
622.0,0.04784
623.0,0.04686
624.0,0.04583
625.0,0.04553
626.0,0.046
627.0,0.04626
628.0,0.04252
629.0,0.04456
630.0,0.04331
631.0,0.04423
632.0,0.04354
633.0,0.04474
634.0,0.04417
635.0,0.04468
636.0,0.04392
637.0,0.04446
638.0,0.04473
639.0,0.04406
640.0,0.04345
641.0,0.04324
642.0,0.04289
643.0,0.0433
644.0,0.043
645.0,0.04285
646.0,0.04159
647.0,0.04079
648.0,0.04061
649.0,0.03964
650.0,0.0398
651.0,0.04136
652.0,0.03926
653.0,0.04044
654.0,0.03983
655.0,0.03806
656.0,0.03364
657.0,0.03441
658.0,0.03845
659.0,0.03858
660.0,0.03857
661.0,0.03866
662.0,0.03854
663.0,0.03763
664.0,0.03795
665.0,0.03784
666.0,0.03771
667.0,0.03754
668.0,0.03741
669.0,0.03783
670.0,0.03749
671.0,0.03733
672.0,0.03688
673.0,0.03731
674.0,0.037
675.0,0.0365
676.0,0.03659
677.0,0.03609
678.0,0.03605
679.0,0.03532
680.0,0.03544
681.0,0.03505
682.0,0.03484
683.0,0.03461
684.0,0.03427
685.0,0.03439
686.0,0.03403
687.0,0.02099
688.0,0.02511
689.0,0.0251
690.0,0.02644
691.0,0.02799
692.0,0.02913
693.0,0.02874
694.0,0.02834
695.0,0.02958
696.0,0.02948
697.0,0.03149
698.0,0.03086
699.0,0.02978
700.0,0.02928
701.0,0.0288
702.0,0.02895
703.0,0.02887
704.0,0.02976
705.0,0.02966
706.0,0.02954
707.0,0.02944
708.0,0.02936
709.0,0.02933
710.0,0.02915
711.0,0.02903
712.0,0.02887
713.0,0.02841
714.0,0.02837
715.0,0.02726
716.0,0.02714
717.0,0.0228
718.0,0.02068
719.0,0.0187
720.0,0.01954
721.0,0.02185
722.0,0.02542
723.0,0.02326
724.0,0.02055
725.0,0.02008
726.0,0.02103
727.0,0.0213
728.0,0.01976
729.0,0.0206
730.0,0.02176
731.0,0.02063
732.0,0.0222
733.0,0.02363
734.0,0.02413
735.0,0.02349
736.0,0.02336
737.0,0.02333
738.0,0.02372
739.0,0.02313
740.0,0.02367
741.0,0.02335
742.0,0.02328
743.0,0.02375
744.0,0.02357
745.0,0.02347
746.0,0.02347
747.0,0.02341
748.0,0.02324
749.0,0.02287
750.0,0.02275
751.0,0.02243
752.0,0.02243
753.0,0.02244
754.0,0.02239
755.0,0.02216
756.0,0.02206
757.0,0.02199
758.0,0.02161
759.0,0.02099
760.0,0.002873
761.0,0.001487
762.0,0.009444
763.0,0.004401
764.0,0.006791
765.0,0.0093
766.0,0.01178
767.0,0.01533
768.0,0.01813
769.0,0.01855
770.0,0.01924
771.0,0.01937
772.0,0.01934
773.0,0.01938
774.0,0.01918
775.0,0.01895
776.0,0.01909
777.0,0.01874
778.0,0.01853
779.0,0.01845
780.0,0.01826
781.0,0.0182
782.0,0.01823
783.0,0.01784
784.0,0.01785
785.0,0.01764
786.0,0.01776
787.0,0.01731
788.0,0.01699
789.0,0.0169
790.0,0.01629
791.0,0.01644
792.0,0.01625
793.0,0.0159
794.0,0.01619
795.0,0.01637
796.0,0.01568
797.0,0.01563
798.0,0.01613
799.0,0.01593
800.0,0.01555
801.0,0.0154
802.0,0.01529
803.0,0.01509
804.0,0.01505
805.0,0.01497
806.0,0.01536
807.0,0.01509
808.0,0.01504
809.0,0.01465
810.0,0.01443
811.0,0.01433
812.0,0.01378
813.0,0.01338
814.0,0.01146
815.0,0.01133
816.0,0.0104
817.0,0.01057
818.0,0.01009
819.0,0.01146
820.0,0.01065
821.0,0.01275
822.0,0.01227
823.0,0.007799
824.0,0.01173
825.0,0.01229
826.0,0.01167
827.0,0.01239
828.0,0.01016
829.0,0.01147
830.0,0.01125
831.0,0.01125
832.0,0.0108
833.0,0.01163
834.0,0.01108
835.0,0.01231
836.0,0.01161
837.0,0.01225
838.0,0.01176
839.0,0.01196
840.0,0.01219
841.0,0.01194
842.0,0.01194
843.0,0.01192
844.0,0.01168
845.0,0.01205
846.0,0.01194
847.0,0.01168
848.0,0.01154
849.0,0.01116
850.0,0.01064
851.0,0.01119
852.0,0.01107
853.0,0.01061
854.0,0.009112
855.0,0.009986
856.0,0.01086
857.0,0.01107
858.0,0.01095
859.0,0.01092
860.0,0.01089
861.0,0.01079
862.0,0.01092
863.0,0.01114
864.0,0.01054
865.0,0.01041
866.0,0.009319
867.0,0.009686
868.0,0.0105
869.0,0.01024
870.0,0.01049
871.0,0.0103
872.0,0.01022
873.0,0.01016
874.0,0.009995
875.0,0.009748
876.0,0.009805
877.0,0.009863
878.0,0.009925
879.0,0.009732
880.0,0.009483
881.0,0.009295
882.0,0.009456
883.0,0.009454
884.0,0.009366
885.0,0.009393
886.0,0.008888
887.0,0.008967
888.0,0.009048
889.0,0.009135
890.0,0.00899
891.0,0.008953
892.0,0.008628
893.0,0.008275
894.0,0.007868
895.0,0.007301
896.0,0.006766
897.0,0.005639
898.0,0.006217
899.0,0.004506
900.0,0.006386
901.0,0.004744
902.0,0.00572
903.0,0.00571
904.0,0.007489
905.0,0.007153
906.0,0.006615
907.0,0.005132
908.0,0.005251
909.0,0.005769
910.0,0.004933
911.0,0.005323
912.0,0.005581
913.0,0.004943
914.0,0.004893
915.0,0.005339
916.0,0.004398
917.0,0.005798
918.0,0.004489
919.0,0.00588
920.0,0.005973
921.0,0.006246
922.0,0.005437
923.0,0.005989
924.0,0.005533
925.0,0.005375
926.0,0.005425
927.0,0.006163
928.0,0.004209
929.0,0.003764
930.0,0.002829
931.0,0.002659
932.0,0.001818
933.0,0.001434
934.0,0.0007335
935.0,0.00147
936.0,0.0008713
937.0,0.0008784
938.0,0.001094
939.0,0.002487
940.0,0.003069
941.0,0.002213
942.0,0.002603
943.0,0.001614
944.0,0.001726
945.0,0.002251
946.0,0.001052
947.0,0.002233
948.0,0.001587
949.0,0.003094
950.0,0.0007351
951.0,0.003028
952.0,0.001486
953.0,0.001982
954.0,0.002512
955.0,0.002004
956.0,0.001952
957.0,0.001459
958.0,0.002888
959.0,0.002186
960.0,0.002473
961.0,0.002833
962.0,0.002652
963.0,0.003129
964.0,0.002817
965.0,0.003094
966.0,0.003079
967.0,0.003045
968.0,0.00436
969.0,0.004548
970.0,0.004097
971.0,0.004827
972.0,0.004554
973.0,0.003818
974.0,0.003583
975.0,0.003738
976.0,0.003482
977.0,0.004086
978.0,0.003811
979.0,0.004023
980.0,0.003723
981.0,0.004619
982.0,0.004349
983.0,0.004126
984.0,0.004762
985.0,0.004284
986.0,0.004843
987.0,0.004695
988.0,0.004667
989.0,0.004792
990.0,0.004605
991.0,0.004759
992.0,0.004772
993.0,0.004616
994.0,0.004741
995.0,0.004723
996.0,0.004679
997.0,0.004671
998.0,0.00463
999.0,0.004598
1000.0,0.004541
1001.0,0.00459
1002.0,0.004411
1003.0,0.004472
1004.0,0.004336
1005.0,0.004174
1006.0,0.004313
1007.0,0.004391
1008.0,0.004344
1009.0,0.004298
1010.0,0.00426
1011.0,0.004304
1012.0,0.004243
1013.0,0.004263
1014.0,0.004218
1015.0,0.004174
1016.0,0.004138
1017.0,0.004131
1018.0,0.004103
1019.0,0.003987
1020.0,0.004048
1021.0,0.004029
1022.0,0.003977
1023.0,0.004004
1024.0,0.003925
1025.0,0.003977
1026.0,0.003941
1027.0,0.003917
1028.0,0.003894
1029.0,0.003833
1030.0,0.003849
1031.0,0.003817
1032.0,0.003793
1033.0,0.003721
1034.0,0.003707
1035.0,0.003704
1036.0,0.003708
1037.0,0.003634
1038.0,0.003637
1039.0,0.003621
1040.0,0.003593
1041.0,0.003592
1042.0,0.003553
1043.0,0.003529
1044.0,0.003528
1045.0,0.003466
1046.0,0.003414
1047.0,0.003431
1048.0,0.003437
1049.0,0.003412
1050.0,0.003382
1051.0,0.003364
1052.0,0.003337
1053.0,0.003298
1054.0,0.003292
1055.0,0.00328
1056.0,0.003254
1057.0,0.00323
1058.0,0.003139
1059.0,0.003129
1060.0,0.003112
1061.0,0.003096
1062.0,0.003099
1063.0,0.003056
1064.0,0.003082
1065.0,0.003045
1066.0,0.002977
1067.0,0.003003
1068.0,0.002923
1069.0,0.002825
1070.0,0.002907
1071.0,0.002951
1072.0,0.002899
1073.0,0.002849
1074.0,0.002923
1075.0,0.002738
1076.0,0.002897
1077.0,0.002819
1078.0,0.002749
1079.0,0.002824
1080.0,0.002742
1081.0,0.002635
1082.0,0.002691
1083.0,0.002695
1084.0,0.002591
1085.0,0.002705
1086.0,0.002409
1087.0,0.002517
1088.0,0.002638
1089.0,0.002522
1090.0,0.002437
1091.0,0.002593
1092.0,0.002583
1093.0,0.002104
1094.0,0.002338
1095.0,0.002191
1096.0,0.002068
1097.0,0.002481
1098.0,0.002015
1099.0,0.002105
1100.0,0.001915
1101.0,0.001943
1102.0,0.001832
1103.0,0.001795
1104.0,0.001793
1105.0,0.002006
1106.0,0.001427
1107.0,0.001869
1108.0,0.001515
1109.0,0.001518
1110.0,0.001826
1111.0,0.00114
1112.0,0.001493
1113.0,0.0008672
1114.0,0.0009782
1115.0,0.0007915
1116.0,0.0006023
1117.0,0.0001967
1118.0,0.0006597
1119.0,0.0003002
1120.0,0.0003806
1121.0,0.0005188
1122.0,0.0001997
1123.0,0.0003385
1124.0,0.0002819
1125.0,0.0003753
1126.0,0.0001178
1127.0,0.000424
1128.0,0.0002375
1129.0,0.0002528
1130.0,0.0001608
1131.0,0.0008644
1132.0,0.0006548
1133.0,0.0003866
1134.0,8.838e-05
1135.0,3.256e-05
1136.0,0.0003115
1137.0,0.000825
1138.0,0.000559
1139.0,0.000896
1140.0,0.00072
1141.0,0.0005239
1142.0,0.0006132
1143.0,0.0009124
1144.0,0.0002791
1145.0,0.000357
1146.0,0.0003852
1147.0,0.0001226
1148.0,0.0007631
1149.0,0.0005857
1150.0,0.0002969
1151.0,0.0005298
1152.0,0.0006728
1153.0,0.0006596
1154.0,0.0003346
1155.0,0.0008891
1156.0,0.0007825
1157.0,0.0008986
1158.0,0.0008846
1159.0,0.0009699
1160.0,0.0008037
1161.0,0.001033
1162.0,0.00103
1163.0,0.00148
1164.0,0.001227
1165.0,0.001131
1166.0,0.001129
1167.0,0.001245
1168.0,0.001253
1169.0,0.00129
1170.0,0.001421
1171.0,0.001374
1172.0,0.001405
1173.0,0.001403
1174.0,0.000933
1175.0,0.001369
1176.0,0.001531
1177.0,0.001446
1178.0,0.001024
1179.0,0.001529
1180.0,0.001322
1181.0,0.001367
1182.0,0.000878
1183.0,0.001345
1184.0,0.001233
1185.0,0.001173
1186.0,0.00144
1187.0,0.001351
1188.0,0.0008777
1189.0,0.001243
1190.0,0.001387
1191.0,0.00129
1192.0,0.001401
1193.0,0.001326
1194.0,0.001372
1195.0,0.001277
1196.0,0.001215
1197.0,0.001372
1198.0,0.001232
1199.0,0.001008
1200.0,0.001284
1201.0,0.001221
1202.0,0.001215
1203.0,0.001205
1204.0,0.00102
1205.0,0.001243
1206.0,0.001399
1207.0,0.001194
1208.0,0.001183
1209.0,0.001204
1210.0,0.001261
1211.0,0.001182
1212.0,0.001153
1213.0,0.001316
1214.0,0.00118
1215.0,0.00115
1216.0,0.0013
1217.0,0.001254
1218.0,0.00128
1219.0,0.001257
1220.0,0.001274
1221.0,0.001287
1222.0,0.001244
1223.0,0.001226
1224.0,0.00121
1225.0,0.001262
1226.0,0.001271
1227.0,0.00115
1228.0,0.001272
1229.0,0.001259
1230.0,0.00123
1231.0,0.001272
1232.0,0.00126
1233.0,0.001199
1234.0,0.001261
1235.0,0.001247
1236.0,0.001254
1237.0,0.001227
1238.0,0.001242
1239.0,0.001222
1240.0,0.001223
1241.0,0.00121
1242.0,0.001206
1243.0,0.001193
1244.0,0.001196
1245.0,0.001198
1246.0,0.001187
1247.0,0.001178
1248.0,0.001172
1249.0,0.001173
1250.0,0.001161
1251.0,0.001141
1252.0,0.00114
1253.0,0.001122
1254.0,0.001104
1255.0,0.001126
1256.0,0.001083
1257.0,0.001072
1258.0,0.001095
1259.0,0.00104
1260.0,0.001043
1261.0,0.0009668
1262.0,0.0009274
1263.0,0.0009261
1264.0,0.0008356
1265.0,0.0009152
1266.0,0.000868
1267.0,0.0008875
1268.0,0.0008281
1269.0,0.0004575
1270.0,0.0008742
1271.0,0.0009387
1272.0,0.0009405
1273.0,0.0009259
1274.0,0.0009281
1275.0,0.0009414
1276.0,0.0009504
1277.0,0.0009567
1278.0,0.0009783
1279.0,0.0009659
1280.0,0.0009509
1281.0,0.0009074
1282.0,0.0008762
1283.0,0.0009398
1284.0,0.0009582
1285.0,0.0009623
1286.0,0.0009749
1287.0,0.0009519
1288.0,0.0009499
1289.0,0.0009079
1290.0,0.0009362
1291.0,0.0009477
1292.0,0.0008706
1293.0,0.000919
1294.0,0.0009086
1295.0,0.0008977
1296.0,0.0008436
1297.0,0.0007865
1298.0,0.000861
1299.0,0.0009045
1300.0,0.0007327
1301.0,0.0007591
1302.0,0.0008487
1303.0,0.0007182
1304.0,0.0005872
1305.0,0.0008202
1306.0,0.0008169
1307.0,0.0005995
1308.0,0.0007097
1309.0,0.000801
1310.0,0.0005808
1311.0,0.0006684
1312.0,0.0006468
1313.0,0.0006274
1314.0,0.0005473
1315.0,0.0005377
1316.0,0.0006457
1317.0,0.0006034
1318.0,0.0006663
1319.0,0.0004904
1320.0,0.000474
1321.0,0.0005659
1322.0,0.0005683
1323.0,0.000403
1324.0,0.0004731
1325.0,0.0006167
1326.0,0.0005116
1327.0,0.0004819
1328.0,0.0004042
1329.0,0.0002873
1330.0,0.0003863
1331.0,0.0002148
1332.0,0.0002237
1333.0,0.0003213
1334.0,0.0002706
1335.0,0.0003869
1336.0,0.0002933
1337.0,0.0002542
1338.0,0.0002762
1339.0,0.0002753
1340.0,0.0002677
1341.0,0.0002557
1342.0,0.0002696
1343.0,0.0001697
1344.0,9.853e-05
1345.0,0.0001448
1346.0,6.678e-05
1347.0,6.738e-05
1348.0,4.082e-06
1349.0,1.481e-05
1350.0,1.54e-05
1351.0,3.658e-06
1352.0,9.791e-07
1353.0,4.976e-08
1354.0,1.711e-07
1355.0,1.377e-09
1356.0,2.41e-08
1357.0,3.661e-08
1358.0,1.616e-09
1359.0,2.036e-10
1360.0,7.359e-10
1361.0,8.232e-13
1362.0,2.252e-15
1363.0,9.895e-10
1364.0,4.085e-10
1365.0,7.862e-16
1366.0,4.288e-09
1367.0,1.75e-09
1368.0,6.07e-18
1369.0,1.505e-10
1370.0,7.413e-11
1371.0,4.202e-12
1372.0,9.493e-10
1373.0,1.913e-08
1374.0,8.871e-08
1375.0,1.609e-07
1376.0,1.443e-07
1377.0,6.592e-08
1378.0,6.45e-07
1379.0,2.754e-08
1380.0,3.957e-08
1381.0,1.031e-09
1382.0,8.319e-10
1383.0,1.244e-11
1384.0,1.631e-10
1385.0,7.797e-10
1386.0,7.334e-10
1387.0,8.872e-08
1388.0,1.745e-09
1389.0,2.997e-07
1390.0,2.572e-07
1391.0,1.71e-07
1392.0,1.108e-08
1393.0,5.872e-08
1394.0,3.026e-08
1395.0,2.217e-10
1396.0,1.071e-12
1397.0,2.311e-08
1398.0,6.84e-07
1399.0,4.326e-07
1400.0,4.581e-13
1401.0,1.901e-12
1402.0,1.201e-06
1403.0,1.505e-06
1404.0,4.563e-07
1405.0,1.05e-10
1406.0,1.18e-06
1407.0,1.039e-07
1408.0,9.598e-07
1409.0,3.196e-07
1410.0,2.559e-07
1411.0,1.293e-06
1412.0,1.747e-06
1413.0,1.857e-05
1414.0,1.998e-07
1415.0,9.536e-08
1416.0,3.143e-05
1417.0,9.005e-06
1418.0,1.018e-05
1419.0,1.549e-06
1420.0,6.161e-06
1421.0,6.661e-06
1422.0,4.067e-05
1423.0,7.549e-06
1424.0,1.433e-05
1425.0,2.099e-05
1426.0,2.427e-05
1427.0,4.641e-05
1428.0,3.036e-06
1429.0,3.358e-05
1430.0,5.986e-05
1431.0,6.633e-05
1432.0,2.357e-06
1433.0,4.055e-05
1434.0,1.991e-05
1435.0,1.902e-05
1436.0,3.85e-05
1437.0,2.924e-05
1438.0,1.177e-05
1439.0,5.311e-05
1440.0,3.936e-05
1441.0,2.888e-05
1442.0,3.205e-05
1443.0,4.162e-05
1444.0,5.913e-05
1445.0,4.44e-05
1446.0,1.917e-05
1447.0,3.064e-05
1448.0,0.000119
1449.0,0.0001006
1450.0,2.246e-05
1451.0,8.654e-06
1452.0,5.692e-05
1453.0,7.631e-05
1454.0,0.0001432
1455.0,6.153e-05
1456.0,8.292e-05
1457.0,0.000117
1458.0,0.0001441
1459.0,0.0001718
1460.0,8.267e-05
1461.0,8.428e-05
1462.0,0.0001307
1463.0,3.76e-05
1464.0,0.0001604
1465.0,9.184e-05
1466.0,5.759e-05
1467.0,2.843e-05
1468.0,6.918e-05
1469.0,8.765e-05
1470.0,3.959e-05
1471.0,1.365e-05
1472.0,3.755e-05
1473.0,6.046e-05
1474.0,9.375e-05
1475.0,0.0001943
1476.0,6.056e-05
1477.0,6.019e-05
1478.0,5.677e-05
1479.0,0.0001168
1480.0,5.118e-05
1481.0,0.0001097
1482.0,5.049e-05
1483.0,0.0001475
1484.0,0.0001382
1485.0,0.0001199
1486.0,0.0001163
1487.0,4.829e-05
1488.0,9.18e-05
1489.0,0.0001984
1490.0,0.0001821
1491.0,0.0002117
1492.0,0.0001649
1493.0,0.0001856
1494.0,0.0002154
1495.0,0.0001875
1496.0,0.0001732
1497.0,0.0002544
1498.0,0.0001981
1499.0,0.0002371
1500.0,0.0002815
1501.0,0.0002969
1502.0,0.0002452
1503.0,0.0002007
1504.0,0.0001546
1505.0,0.0001921
1506.0,0.0002957
1507.0,0.000281
1508.0,0.000266
1509.0,0.0001915
1510.0,0.0003054
1511.0,0.000292
1512.0,0.0002902
1513.0,0.0002596
1514.0,0.0002388
1515.0,0.0002972
1516.0,0.0002817
1517.0,0.0002724
1518.0,0.0002713
1519.0,0.000263
1520.0,0.0002868
1521.0,0.000311
1522.0,0.0002913
1523.0,0.0003143
1524.0,0.0003022
1525.0,0.0002851
1526.0,0.0002894
1527.0,0.0002863
1528.0,0.0003086
1529.0,0.0002907
1530.0,0.000284
1531.0,0.0002918
1532.0,0.0003055
1533.0,0.0003053
1534.0,0.0002987
1535.0,0.0002956
1536.0,0.0003013
1537.0,0.0002934
1538.0,0.0002969
1539.0,0.0002906
1540.0,0.0002915
1541.0,0.0002926
1542.0,0.0002881
1543.0,0.0002932
1544.0,0.0002884
1545.0,0.0002941
1546.0,0.0002884
1547.0,0.0002841
1548.0,0.0002834
1549.0,0.0002855
1550.0,0.0002827
1551.0,0.000284
1552.0,0.0002806
1553.0,0.0002788
1554.0,0.0002755
1555.0,0.0002758
1556.0,0.0002748
1557.0,0.0002775
1558.0,0.0002753
1559.0,0.0002729
1560.0,0.0002741
1561.0,0.0002754
1562.0,0.0002711
1563.0,0.0002684
1564.0,0.0002689
1565.0,0.000269
1566.0,0.0002647
1567.0,0.0002647
1568.0,0.0002613
1569.0,0.0002625
1570.0,0.0002643
1571.0,0.0002658
1572.0,0.0002635
1573.0,0.0002611
1574.0,0.0002511
1575.0,0.0002475
1576.0,0.0002428
1577.0,0.000236
1578.0,0.0002471
1579.0,0.0002484
1580.0,0.0002502
1581.0,0.0002459
1582.0,0.0002405
1583.0,0.000241
1584.0,0.0002453
1585.0,0.0002475
1586.0,0.0002439
1587.0,0.0002394
1588.0,0.0002325
1589.0,0.0002248
1590.0,0.0002292
1591.0,0.0002344
1592.0,0.0002405
1593.0,0.0002439
1594.0,0.0002427
1595.0,0.0002392
1596.0,0.0002315
1597.0,0.0002366
1598.0,0.0002397
1599.0,0.0002365
1600.0,0.0002345
1601.0,0.0002305
1602.0,0.0002305
1603.0,0.0002325
1604.0,0.0002301
1605.0,0.0002294
1606.0,0.0002262
1607.0,0.0002277
1608.0,0.0002268
1609.0,0.0002203
1610.0,0.0002153
1611.0,0.0002185
1612.0,0.0002206
1613.0,0.0002203
1614.0,0.0002199
1615.0,0.0002145
1616.0,0.0002107
1617.0,0.0002142
1618.0,0.0002175
1619.0,0.0002127
1620.0,0.0002079
1621.0,0.0002098
1622.0,0.0002125
1623.0,0.0002151
1624.0,0.000212
1625.0,0.0002106
1626.0,0.0002105
1627.0,0.0002117
1628.0,0.0002105
1629.0,0.0002083
1630.0,0.0002065
1631.0,0.0002045
1632.0,0.0002037
1633.0,0.0001965
1634.0,0.0002012
1635.0,0.0001971
1636.0,0.0001955
1637.0,0.0001931
1638.0,0.00018
1639.0,0.000188
1640.0,0.0001778
1641.0,0.0001855
1642.0,0.0001891
1643.0,0.0001759
1644.0,0.0001882
1645.0,0.0001812
1646.0,0.0001752
1647.0,0.0001898
1648.0,0.0001739
1649.0,0.0001838
1650.0,0.0001849
1651.0,0.0001685
1652.0,0.0001818
1653.0,0.0001833
1654.0,0.0001713
1655.0,0.0001824
1656.0,0.0001782
1657.0,0.0001795
1658.0,0.0001819
1659.0,0.00018
1660.0,0.0001811
1661.0,0.0001795
1662.0,0.0001735
1663.0,0.000178
1664.0,0.0001757
1665.0,0.0001639
1666.0,0.0001284
1667.0,0.0001615
1668.0,0.0001687
1669.0,0.0001692
1670.0,0.0001722
1671.0,0.0001665
1672.0,0.0001643
1673.0,0.0001679
1674.0,0.0001632
1675.0,0.0001604
1676.0,0.0001614
1677.0,0.0001604
1678.0,0.0001547
1679.0,0.0001589
1680.0,0.0001519
1681.0,0.0001462
1682.0,0.0001549
1683.0,0.0001578
1684.0,0.000143
1685.0,0.0001588
1686.0,0.0001579
1687.0,0.0001505
1688.0,0.0001561
1689.0,0.000154
1690.0,0.0001528
1691.0,0.0001363
1692.0,0.0001512
1693.0,0.0001559
1694.0,0.0001486
1695.0,0.0001533
1696.0,0.000153
1697.0,0.000124
1698.0,0.0001507
1699.0,0.0001482
1700.0,0.0001432
1702.0,0.0001458
1705.0,0.0001395
1710.0,0.00013
1715.0,0.0001288
1720.0,0.0001262
1725.0,0.0001151
1730.0,0.0001127
1735.0,0.0001038
1740.0,0.000104
1745.0,9.573e-05
1750.0,0.0001023
1755.0,9.184e-05
1760.0,9.566e-05
1765.0,7.497e-05
1770.0,7.994e-05
1775.0,6.117e-05
1780.0,5.063e-05
1785.0,3.605e-05
1790.0,4.213e-05
1795.0,1.855e-05
1800.0,1.265e-05
1805.0,4.693e-06
1810.0,3.036e-06
1815.0,8.538e-07
1820.0,2.122e-07
1825.0,2.771e-07
1830.0,6.73e-10
1835.0,1.019e-09
1840.0,5.946e-12
1845.0,6.357e-10
1850.0,2.87e-10
1855.0,2.743e-11
1860.0,1.572e-09
1865.0,2.19e-09
1870.0,1.199e-14
1875.0,2.166e-14
1880.0,1.154e-08
1885.0,6.146e-09
1890.0,3.372e-08
1895.0,1.956e-08
1900.0,8.359e-11
1905.0,5.693e-11
1910.0,2.757e-09
1915.0,2.686e-09
1920.0,7.051e-08
1925.0,1.659e-07
1930.0,9.577e-08
1935.0,7.365e-07
1940.0,7.349e-07
1945.0,3.111e-06
1950.0,6.253e-06
1955.0,5.498e-06
1960.0,1.016e-05
1965.0,1.539e-05
1970.0,2.249e-05
1975.0,2.576e-05
1980.0,2.588e-05
1985.0,2.802e-05
1990.0,2.885e-05
1995.0,3.058e-05
2000.0,3.222e-05
2005.0,2.624e-05
2010.0,3.94e-05
2015.0,2.953e-05
2020.0,3.173e-05
2025.0,3.477e-05
2030.0,3.12e-05
2035.0,3.429e-05
2040.0,3.205e-05
2045.0,3.291e-05
2050.0,3.328e-05
2055.0,3.14e-05
2060.0,2.998e-05
2065.0,3.035e-05
2070.0,2.965e-05
2075.0,3.021e-05
2080.0,2.912e-05
2085.0,2.869e-05
2090.0,2.881e-05
2095.0,2.763e-05
2100.0,2.527e-05
2105.0,2.74e-05
2110.0,2.589e-05
2115.0,2.644e-05
2120.0,2.443e-05
2125.0,2.466e-05
2130.0,2.484e-05
2135.0,2.484e-05
2140.0,2.486e-05
2145.0,2.437e-05
2150.0,2.241e-05
2155.0,2.223e-05
2160.0,2.183e-05
2165.0,1.964e-05
2170.0,2.086e-05
2175.0,2.005e-05
2180.0,2.053e-05
2185.0,1.794e-05
2190.0,1.941e-05
2195.0,1.904e-05
2200.0,1.628e-05
2205.0,1.721e-05
2210.0,1.878e-05
2215.0,1.765e-05
2220.0,1.795e-05
2225.0,1.719e-05
2230.0,1.713e-05
2235.0,1.649e-05
2240.0,1.614e-05
2245.0,1.524e-05
2250.0,1.549e-05
2255.0,1.414e-05
2260.0,1.373e-05
2265.0,1.403e-05
2270.0,1.293e-05
2275.0,1.259e-05
2280.0,1.323e-05
2285.0,1.214e-05
2290.0,1.204e-05
2295.0,1.16e-05
2300.0,1.079e-05
2305.0,1.081e-05
2310.0,1.202e-05
2315.0,1.044e-05
2320.0,8.888e-06
2325.0,1.01e-05
2330.0,9.983e-06
2335.0,1.02e-05
2340.0,7.484e-06
2345.0,8.548e-06
2350.0,6.507e-06
2355.0,7.68e-06
2360.0,8.179e-06
2365.0,8.032e-06
2370.0,4.279e-06
2375.0,6.817e-06
2380.0,6.453e-06
2385.0,4.37e-06
2390.0,5.289e-06
2395.0,5.861e-06
2400.0,6.456e-06
2405.0,4.681e-06
2410.0,4.648e-06
2415.0,3.585e-06
2420.0,3.447e-06
2425.0,4.402e-06
2430.0,6.212e-06
2435.0,1.725e-06
2440.0,5.94e-06
2445.0,2.47e-06
2450.0,1.505e-06
2455.0,3.004e-06
2460.0,4.121e-06
2465.0,2.782e-06
2470.0,1.778e-06
2475.0,1.718e-06
2480.0,7.789e-07
2485.0,4.985e-07
2490.0,2.834e-07
2495.0,2.449e-07
2500.0,6.183e-07
2505.0,1.233e-07
2510.0,1.82e-07
2515.0,3.81e-08
2520.0,2.134e-08
2525.0,2.431e-09
2530.0,1.691e-11
2535.0,3.741e-12
2540.0,8.875e-12
2545.0,6.883e-16
2550.0,2.79e-18
2555.0,1.339e-14
2560.0,4.02e-16
2565.0,8.998e-20
2570.0,2.679e-24
2575.0,1.6950000000000001e-34
2580.0,1.7670000000000002e-28
2585.0,3.694e-42
2590.0,2.3049999999999999e-38
2595.0,4.4839999999999996e-40
2600.0,3.692e-35
2605.0,4.081e-42
2610.0,1.404e-41
2615.0,1.4009999999999999e-45
2620.0,1.238e-35
2625.0,2.266e-35
2630.0,0.0
2635.0,1.18e-21
2640.0,2.555e-22
2645.0,1.114e-24
2650.0,1.109e-25
2655.0,1.3340000000000001e-34
2660.0,1.1230000000000001e-31
2665.0,1.121e-44
2670.0,0.0
2675.0,5.464999999999999e-44
2680.0,2.2770000000000002e-30
2685.0,2.176e-31
2690.0,8.138e-31
2695.0,3.193e-33
2700.0,9.301e-29
2705.0,2.6370000000000003e-26
2710.0,2.1e-31
2715.0,2.652e-29
2720.0,0.0
2725.0,5.9379999999999996e-27
2730.0,1.731e-24
2735.0,1.9740000000000003e-26
2740.0,3.566e-32
2745.0,4.598e-27
2750.0,2.5770000000000002e-26
2755.0,4.146e-28
2760.0,6.211e-23
2765.0,2.915e-29
2770.0,1.4330000000000002e-26
2775.0,1.768e-23
2780.0,8.234e-21
2785.0,3.092e-20
2790.0,7.049e-18
2795.0,1.551e-18
2800.0,4.95e-15
2805.0,9.256e-17
2810.0,3.712e-13
2815.0,1.107e-13
2820.0,1.353e-15
2825.0,1.187e-11
2830.0,2.581e-10
2835.0,3.554e-15
2840.0,7.605e-12
2845.0,2.632e-09
2850.0,4.555e-11
2855.0,1.82e-11
2860.0,9.46e-10
2865.0,6.976e-09
2870.0,1.769e-10
2875.0,1.698e-08
2880.0,1.07e-08
2885.0,1.763e-08
2890.0,7.494e-09
2895.0,1.279e-07
2900.0,3.562e-08
2905.0,4.12e-09
2910.0,1.305e-07
2915.0,5.533e-08
2920.0,1.375e-07
2925.0,4.896e-08
2930.0,2.971e-07
2935.0,3.277e-07
2940.0,7.317e-08
2945.0,6.281e-08
2950.0,2.541e-07
2955.0,1.131e-07
2960.0,2.246e-07
2965.0,3.81e-07
2970.0,1.485e-08
2975.0,3.764e-08
2980.0,5.858e-08
2985.0,3.461e-07
2990.0,5.258e-07
2995.0,1.987e-07
3000.0,3.788e-07
3005.0,1.285e-07
3010.0,3.316e-07
3015.0,2.567e-07
3020.0,2.309e-08
3025.0,3.545e-07
3030.0,2.79e-07
3035.0,1.057e-07
3040.0,8.259e-08
3045.0,1.777e-07
3050.0,4.017e-08
3055.0,9.814e-09
3060.0,2.775e-07
3065.0,1.17e-07
3070.0,6.566e-08
3075.0,2.587e-07
3080.0,1.499e-07
3085.0,6.602e-08
3090.0,8.984e-08
3095.0,2.205e-08
3100.0,1.802e-07
3105.0,3.36e-08
3110.0,2.81e-08
3115.0,8.456e-08
3120.0,4.189e-07
3125.0,1.221e-07
3130.0,2.436e-07
3135.0,4.916e-07
3140.0,1.292e-07
3145.0,1.267e-07
3150.0,2.691e-07
3155.0,2.263e-07
3160.0,3.774e-07
3165.0,5.982e-07
3170.0,5.291e-07
3175.0,3.692e-07
3180.0,4.377e-07
3185.0,3.037e-07
3190.0,1.585e-07
3195.0,8.739e-08
3200.0,1.228e-08
3205.0,8.015e-09
3210.0,3.339e-09
3215.0,1.359e-08
3220.0,4.782e-08
3225.0,5.482e-09
3230.0,9.108e-09
3235.0,2.602e-07
3240.0,1.17e-07
3245.0,2.209e-08
3250.0,8.191e-08
3255.0,3.578e-07
3260.0,3.488e-08
3265.0,7.581e-08
3270.0,3.553e-08
3275.0,2.176e-07
3280.0,9.166e-08
3285.0,4.076e-07
3290.0,3.04e-07
3295.0,3.661e-08
3300.0,5.452e-08
3305.0,1.26e-07
3310.0,1.195e-07
3315.0,1.708e-10
3320.0,1.076e-09
3325.0,1.001e-07
3330.0,1.538e-07
3335.0,3.005e-07
3340.0,1.091e-07
3345.0,1.056e-07
3350.0,2.674e-07
3355.0,1.067e-07
3360.0,1.648e-07
3365.0,2.338e-07
3370.0,1.117e-07
3375.0,2.748e-07
3380.0,1.474e-07
3385.0,2.355e-07
3390.0,3.104e-07
3395.0,3.008e-07
3400.0,4.087e-07
3405.0,1.224e-07
3410.0,2.169e-07
3415.0,2.102e-07
3420.0,4.252e-07
3425.0,3.02e-07
3430.0,2.539e-07
3435.0,3.646e-07
3440.0,2.311e-07
3445.0,3.472e-07
3450.0,3.388e-07
3455.0,2.401e-07
3460.0,3.868e-07
3465.0,2.843e-07
3470.0,3.741e-07
3475.0,3.234e-07
3480.0,3.314e-07
3485.0,3.614e-07
3490.0,3.001e-07
3495.0,3.633e-07
3500.0,3.504e-07
3505.0,3.454e-07
3510.0,3.498e-07
3515.0,3.327e-07
3520.0,3.553e-07
3525.0,3.296e-07
3530.0,3.189e-07
3535.0,2.589e-07
3540.0,2.445e-07
3545.0,2.595e-07
3550.0,2.94e-07
3555.0,2.449e-07
3560.0,3.01e-07
3565.0,3.001e-07
3570.0,2.236e-07
3575.0,2.307e-07
3580.0,2.801e-07
3585.0,2.43e-07
3590.0,2.54e-07
3595.0,2.6e-07
3600.0,2.785e-07
3605.0,2.775e-07
3610.0,2.5e-07
3615.0,2.506e-07
3620.0,3.152e-07
3625.0,2.671e-07
3630.0,2.596e-07
3635.0,2.676e-07
3640.0,3.036e-07
3645.0,2.715e-07
3650.0,2.571e-07
3655.0,2.823e-07
3660.0,2.793e-07
3665.0,2.558e-07
3670.0,1.897e-07
3675.0,1.054e-07
3680.0,1.968e-07
3685.0,2.279e-07
3690.0,2.355e-07
3695.0,2.467e-07
3700.0,2.687e-07
3705.0,2.632e-07
3710.0,2.225e-07
3715.0,2.183e-07
3720.0,2.512e-07
3725.0,2.584e-07
3730.0,2.177e-07
3735.0,1.957e-07
3740.0,2.017e-07
3745.0,2.408e-07
3750.0,2.146e-07
3755.0,2.06e-07
3760.0,2.014e-07
3765.0,1.928e-07
3770.0,2.084e-07
3775.0,2.048e-07
3780.0,2.184e-07
3785.0,1.959e-07
3790.0,1.69e-07
3795.0,1.971e-07
3800.0,2.247e-07
3805.0,2.08e-07
3810.0,1.794e-07
3815.0,1.658e-07
3820.0,2.155e-07
3825.0,2.094e-07
3830.0,2.125e-07
3835.0,1.608e-07
3840.0,1.946e-07
3845.0,1.88e-07
3850.0,1.887e-07
3855.0,1.786e-07
3860.0,1.638e-07
3865.0,1.648e-07
3870.0,1.457e-07
3875.0,1.294e-07
3880.0,1.238e-07
3885.0,1.286e-07
3890.0,1.304e-07
3895.0,1.454e-07
3900.0,1.561e-07
3905.0,1.55e-07
3910.0,1.35e-07
3915.0,1.305e-07
3920.0,1.298e-07
3925.0,1.267e-07
3930.0,1.315e-07
3935.0,1.379e-07
3940.0,1.395e-07
3945.0,1.421e-07
3950.0,1.443e-07
3955.0,1.457e-07
3960.0,1.468e-07
3965.0,1.477e-07
3970.0,1.452e-07
3975.0,1.401e-07
3980.0,1.373e-07
3985.0,1.374e-07
3990.0,1.348e-07
3995.0,1.308e-07
4000.0,1.245e-07
