interpolation:linear
wavelength,value
280.0,7.7329999999999995e-22
280.5,2.5030000000000003e-20
281.0,1.334e-19
281.5,5.21e-19
282.0,8.814e-19
282.5,2.181e-18
283.0,6.867e-18
283.5,1.115e-17
284.0,1.811e-16
284.5,5.247e-16
285.0,9.783e-16
285.5,4.762e-15
286.0,1.907e-14
286.5,8.481e-14
287.0,2.415e-13
287.5,9.222e-13
288.0,2.945e-12
288.5,9.093e-12
289.0,2.451e-11
289.5,7.461e-11
290.0,2.079e-10
290.5,4.25e-10
291.0,9.139e-10
291.5,2.626e-09
292.0,5.84e-09
292.5,8.238e-09
293.0,1.778e-08
293.5,4.355e-08
294.0,6.84e-08
294.5,9.046e-08
295.0,1.535e-07
295.5,3.167e-07
296.0,5.842e-07
296.5,8.354e-07
297.0,1.154e-06
297.5,3.212e-06
298.0,5.254e-06
298.5,5.462e-06
299.0,1.249e-05
299.5,2.238e-05
300.0,2.588e-05
300.5,3.972e-05
301.0,8.041e-05
301.5,0.0001453
302.0,0.0001339
302.5,0.0002652
303.0,0.0004855
303.5,0.0006216
304.0,0.0005965
304.5,0.0009453
305.0,0.001565
305.5,0.001897
306.0,0.001874
306.5,0.00242
307.0,0.003909
307.5,0.00565
308.0,0.006037
308.5,0.007428
309.0,0.007623
309.5,0.009061
310.0,0.009256
310.5,0.0151
311.0,0.01921
311.5,0.01863
312.0,0.01926
312.5,0.02396
313.0,0.02626
313.5,0.02512
314.0,0.03229
314.5,0.02978
315.0,0.03933
315.5,0.03212
316.0,0.02897
316.5,0.0428
317.0,0.05295
317.5,0.05445
318.0,0.04328
318.5,0.05593
319.0,0.06766
319.5,0.05307
320.0,0.0636
320.5,0.08299
321.0,0.07684
321.5,0.07377
322.0,0.07493
322.5,0.06514
323.0,0.0666
323.5,0.0838
324.0,0.09795
324.5,0.09812
325.0,0.08325
325.5,0.1094
326.0,0.134
326.5,0.1357
327.0,0.1341
327.5,0.1283
328.0,0.1119
328.5,0.1198
329.0,0.1459
329.5,0.1662
330.0,0.1663
330.5,0.1306
331.0,0.132
331.5,0.1353
332.0,0.1483
332.5,0.1475
333.0,0.1459
333.5,0.1299
334.0,0.1324
334.5,0.1547
335.0,0.1462
335.5,0.1721
336.0,0.1188
336.5,0.1365
337.0,0.1109
337.5,0.1372
338.0,0.1353
338.5,0.1573
339.0,0.1549
339.5,0.1488
340.0,0.1728
340.5,0.1555
341.0,0.1522
341.5,0.1388
342.0,0.1653
342.5,0.1541
343.0,0.1692
343.5,0.1591
344.0,0.1168
344.5,0.1185
345.0,0.1556
345.5,0.1581
346.0,0.1339
346.5,0.151
347.0,0.1619
347.5,0.1305
348.0,0.1481
348.5,0.1475
349.0,0.1364
349.5,0.1346
350.0,0.166
350.5,0.1745
351.0,0.1555
351.5,0.151
352.0,0.1614
352.5,0.1255
353.0,0.1575
353.5,0.1678
354.0,0.1737
354.5,0.1756
355.0,0.1745
355.5,0.1571
356.0,0.1638
356.5,0.1394
357.0,0.1149
357.5,0.1401
358.0,0.1107
358.5,0.09431
359.0,0.1315
359.5,0.167
360.0,0.1765
360.5,0.1406
361.0,0.1278
361.5,0.1466
362.0,0.1264
362.5,0.1744
363.0,0.1561
363.5,0.1434
364.0,0.1748
364.5,0.1489
365.0,0.1512
365.5,0.1891
366.0,0.1997
366.5,0.1871
367.0,0.1816
367.5,0.1878
368.0,0.1638
368.5,0.1648
369.0,0.1774
369.5,0.1885
370.0,0.2002
370.5,0.1549
371.0,0.165
371.5,0.2057
372.0,0.1361
372.5,0.1627
373.0,0.1649
373.5,0.107
374.0,0.1549
374.5,0.1279
375.0,0.1239
375.5,0.1844
376.0,0.1523
376.5,0.1573
377.0,0.166
377.5,0.1936
378.0,0.2092
378.5,0.197
379.0,0.162
379.5,0.1475
380.0,0.1528
380.5,0.1844
381.0,0.1842
381.5,0.1455
382.0,0.1287
382.5,0.1094
383.0,0.1009
383.5,0.09686
384.0,0.1065
384.5,0.1561
385.0,0.1543
385.5,0.1432
386.0,0.1222
386.5,0.16
387.0,0.1325
387.5,0.1483
388.0,0.1365
388.5,0.1344
389.0,0.1446
389.5,0.1745
390.0,0.1745
390.5,0.1601
391.0,0.1878
391.5,0.1908
392.0,0.1602
392.5,0.1429
393.0,0.07924
393.5,0.05741
394.0,0.1164
394.5,0.1475
395.0,0.1794
395.5,0.1816
396.0,0.1569
396.5,0.09141
397.0,0.06836
397.5,0.1385
398.0,0.1933
398.5,0.1991
399.0,0.2149
399.5,0.2135
400.0,0.2209
401.0,0.217
402.0,0.2273
403.0,0.2144
404.0,0.2097
405.0,0.2082
406.0,0.2033
407.0,0.1986
408.0,0.2048
409.0,0.2177
410.0,0.189
411.0,0.2033
412.0,0.2168
413.0,0.21
414.0,0.211
415.0,0.2101
416.0,0.2122
417.0,0.2055
418.0,0.2002
419.0,0.2014
420.0,0.199
421.0,0.2067
422.0,0.195
423.0,0.189
424.0,0.1983
425.0,0.1965
426.0,0.1901
427.0,0.1852
428.0,0.1792
429.0,0.1686
430.0,0.1465
431.0,0.1441
432.0,0.1846
433.0,0.1842
434.0,0.1698
435.0,0.1761
436.0,0.1971
437.0,0.1931
438.0,0.1746
439.0,0.1792
440.0,0.1835
441.0,0.1887
442.0,0.2008
443.0,0.1941
444.0,0.197
445.0,0.1914
446.0,0.1815
447.0,0.1948
448.0,0.1963
449.0,0.1955
450.0,0.1994
451.0,0.2053
452.0,0.1964
453.0,0.1834
454.0,0.1902
455.0,0.1898
456.0,0.1928
457.0,0.1944
458.0,0.1862
459.0,0.1837
460.0,0.1827
461.0,0.1855
462.0,0.1856
463.0,0.1832
464.0,0.1791
465.0,0.1758
466.0,0.1763
467.0,0.1717
468.0,0.1723
469.0,0.1717
470.0,0.165
471.0,0.1637
472.0,0.1713
473.0,0.1679
474.0,0.1668
475.0,0.1669
476.0,0.1605
477.0,0.1596
478.0,0.1625
479.0,0.1601
480.0,0.159
481.0,0.1605
482.0,0.1601
483.0,0.157
484.0,0.1528
485.0,0.1447
486.0,0.1257
487.0,0.1309
488.0,0.1425
489.0,0.1418
490.0,0.148
491.0,0.1444
492.0,0.1353
493.0,0.1387
494.0,0.1391
495.0,0.1392
496.0,0.139
497.0,0.14
498.0,0.1323
499.0,0.1327
500.0,0.1277
501.0,0.1241
502.0,0.1211
503.0,0.1249
504.0,0.1205
505.0,0.124
506.0,0.1271
507.0,0.1201
508.0,0.1156
509.0,0.1182
510.0,0.1168
511.0,0.1192
512.0,0.1196
513.0,0.1124
514.0,0.1107
515.0,0.1088
516.0,0.1077
517.0,0.09501
518.0,0.09915
519.0,0.1032
520.0,0.1061
521.0,0.1063
522.0,0.1055
523.0,0.1028
524.0,0.1056
525.0,0.1059
526.0,0.1003
527.0,0.09367
528.0,0.09817
529.0,0.1026
530.0,0.1004
531.0,0.101
532.0,0.09683
533.0,0.09333
534.0,0.09545
535.0,0.09691
536.0,0.09717
537.0,0.09272
538.0,0.09371
539.0,0.09231
540.0,0.08789
541.0,0.08778
542.0,0.0898
543.0,0.08818
544.0,0.08909
545.0,0.08825
546.0,0.08798
547.0,0.08731
548.0,0.08567
549.0,0.08535
550.0,0.08577
551.0,0.08413
552.0,0.08411
553.0,0.08202
554.0,0.08338
555.0,0.08294
556.0,0.08124
557.0,0.07809
558.0,0.07685
559.0,0.07478
560.0,0.07508
561.0,0.07542
562.0,0.07424
563.0,0.07564
564.0,0.07303
565.0,0.07186
566.0,0.07026
567.0,0.07104
568.0,0.06984
569.0,0.06761
570.0,0.06713
571.0,0.06626
572.0,0.0673
573.0,0.06757
574.0,0.06694
575.0,0.06529
576.0,0.06431
577.0,0.06465
578.0,0.06336
579.0,0.06332
580.0,0.06425
581.0,0.06427
582.0,0.06517
583.0,0.06503
584.0,0.06529
585.0,0.06335
586.0,0.06165
587.0,0.06257
588.0,0.06058
589.0,0.05312
590.0,0.05524
591.0,0.05822
592.0,0.05701
593.0,0.05752
594.0,0.05665
595.0,0.05478
596.0,0.05671
597.0,0.05566
598.0,0.05514
599.0,0.05481
600.0,0.05456
601.0,0.0538
602.0,0.05312
603.0,0.05369
604.0,0.05429
605.0,0.05374
606.0,0.05328
607.0,0.05359
608.0,0.05277
609.0,0.05263
610.0,0.05205
611.0,0.05211
612.0,0.05175
613.0,0.05088
614.0,0.04997
615.0,0.05085
616.0,0.04897
617.0,0.04866
618.0,0.05031
619.0,0.04958
620.0,0.04965
621.0,0.04945
622.0,0.04862
623.0,0.04762
624.0,0.04657
625.0,0.04626
626.0,0.04674
627.0,0.047
628.0,0.04322
629.0,0.04527
630.0,0.044
631.0,0.04492
632.0,0.04421
633.0,0.04543
634.0,0.04485
635.0,0.04535
636.0,0.04457
637.0,0.04512
638.0,0.04539
639.0,0.0447
640.0,0.04408
641.0,0.04387
642.0,0.0435
643.0,0.04392
644.0,0.0436
645.0,0.04345
646.0,0.04218
647.0,0.04137
648.0,0.04119
649.0,0.0402
650.0,0.04035
651.0,0.04193
652.0,0.03981
653.0,0.04099
654.0,0.04036
655.0,0.03858
656.0,0.03409
657.0,0.03487
658.0,0.03896
659.0,0.03909
660.0,0.03907
661.0,0.03916
662.0,0.03904
663.0,0.03812
664.0,0.03844
665.0,0.03832
666.0,0.03819
667.0,0.03801
668.0,0.03788
669.0,0.0383
670.0,0.03795
671.0,0.03779
672.0,0.03733
673.0,0.03777
674.0,0.03745
675.0,0.03694
676.0,0.03703
677.0,0.03652
678.0,0.03648
679.0,0.03573
680.0,0.03586
681.0,0.03546
682.0,0.03525
683.0,0.03501
684.0,0.03466
685.0,0.03479
686.0,0.03442
687.0,0.02129
688.0,0.02545
689.0,0.02544
690.0,0.02679
691.0,0.02835
692.0,0.02949
693.0,0.02908
694.0,0.02868
695.0,0.02993
696.0,0.02982
697.0,0.03184
698.0,0.0312
699.0,0.03012
700.0,0.02961
701.0,0.02913
702.0,0.02928
703.0,0.02919
704.0,0.03009
705.0,0.02998
706.0,0.02987
707.0,0.02977
708.0,0.02968
709.0,0.02964
710.0,0.02946
711.0,0.02934
712.0,0.02918
713.0,0.02872
714.0,0.02867
715.0,0.02756
716.0,0.02743
717.0,0.02307
718.0,0.02092
719.0,0.01892
720.0,0.01977
721.0,0.0221
722.0,0.02569
723.0,0.02352
724.0,0.02079
725.0,0.02031
726.0,0.02128
727.0,0.02154
728.0,0.01998
729.0,0.02083
730.0,0.02201
731.0,0.02086
732.0,0.02245
733.0,0.02388
734.0,0.02439
735.0,0.02374
736.0,0.02361
737.0,0.02358
738.0,0.02397
739.0,0.02337
740.0,0.02391
741.0,0.02358
742.0,0.02351
743.0,0.02399
744.0,0.02381
745.0,0.02371
746.0,0.0237
747.0,0.02365
748.0,0.02348
749.0,0.02309
750.0,0.02298
751.0,0.02265
752.0,0.02265
753.0,0.02266
754.0,0.0226
755.0,0.02238
756.0,0.02227
757.0,0.02221
758.0,0.02183
759.0,0.0212
760.0,0.002906
761.0,0.001501
762.0,0.009575
763.0,0.004459
764.0,0.006886
765.0,0.009429
766.0,0.01194
767.0,0.01552
768.0,0.01833
769.0,0.01874
770.0,0.01943
771.0,0.01956
772.0,0.01953
773.0,0.01956
774.0,0.01937
775.0,0.01913
776.0,0.01927
777.0,0.01892
778.0,0.01871
779.0,0.01863
780.0,0.01844
781.0,0.01837
782.0,0.01841
783.0,0.01801
784.0,0.01802
785.0,0.01781
786.0,0.01793
787.0,0.01748
788.0,0.01716
789.0,0.01706
790.0,0.01645
791.0,0.0166
792.0,0.01641
793.0,0.01606
794.0,0.01635
795.0,0.01653
796.0,0.01583
797.0,0.01579
798.0,0.01628
799.0,0.01608
800.0,0.0157
801.0,0.01555
802.0,0.01544
803.0,0.01524
804.0,0.0152
805.0,0.01511
806.0,0.01551
807.0,0.01524
808.0,0.01518
809.0,0.01479
810.0,0.01457
811.0,0.01448
812.0,0.01392
813.0,0.01351
814.0,0.01158
815.0,0.01145
816.0,0.01051
817.0,0.01068
818.0,0.0102
819.0,0.01158
820.0,0.01076
821.0,0.01288
822.0,0.01239
823.0,0.007883
824.0,0.01185
825.0,0.01241
826.0,0.01179
827.0,0.01251
828.0,0.01027
829.0,0.01159
830.0,0.01136
831.0,0.01136
832.0,0.01091
833.0,0.01174
834.0,0.01119
835.0,0.01243
836.0,0.01173
837.0,0.01236
838.0,0.01188
839.0,0.01208
840.0,0.0123
841.0,0.01205
842.0,0.01205
843.0,0.01203
844.0,0.01179
845.0,0.01216
846.0,0.01206
847.0,0.01179
848.0,0.01165
849.0,0.01126
850.0,0.01074
851.0,0.0113
852.0,0.01117
853.0,0.01071
854.0,0.009198
855.0,0.01008
856.0,0.01096
857.0,0.01118
858.0,0.01105
859.0,0.01102
860.0,0.01099
861.0,0.01089
862.0,0.01102
863.0,0.01124
864.0,0.01064
865.0,0.0105
866.0,0.009405
867.0,0.009775
868.0,0.01059
869.0,0.01033
870.0,0.01058
871.0,0.0104
872.0,0.01032
873.0,0.01025
874.0,0.01009
875.0,0.009836
876.0,0.009894
877.0,0.009953
878.0,0.01002
879.0,0.009821
880.0,0.00957
881.0,0.00938
882.0,0.009543
883.0,0.009541
884.0,0.009452
885.0,0.009479
886.0,0.008971
887.0,0.00905
888.0,0.009132
889.0,0.009219
890.0,0.009073
891.0,0.009036
892.0,0.008709
893.0,0.008354
894.0,0.007946
895.0,0.007377
896.0,0.006836
897.0,0.005699
898.0,0.006283
899.0,0.004554
900.0,0.006452
901.0,0.004796
902.0,0.00578
903.0,0.005771
904.0,0.007564
905.0,0.007225
906.0,0.006682
907.0,0.005187
908.0,0.005307
909.0,0.005829
910.0,0.004987
911.0,0.005378
912.0,0.00564
913.0,0.004998
914.0,0.004946
915.0,0.005399
916.0,0.004445
917.0,0.005861
918.0,0.004538
919.0,0.005943
920.0,0.006032
921.0,0.00631
922.0,0.005495
923.0,0.00605
924.0,0.005593
925.0,0.005433
926.0,0.005484
927.0,0.006228
928.0,0.004259
929.0,0.00381
930.0,0.002864
931.0,0.00269
932.0,0.00184
933.0,0.001451
934.0,0.000741
935.0,0.001487
936.0,0.0008802
937.0,0.0008874
938.0,0.001106
939.0,0.002517
940.0,0.003106
941.0,0.00224
942.0,0.002635
943.0,0.001633
944.0,0.001744
945.0,0.002278
946.0,0.001064
947.0,0.002261
948.0,0.001605
949.0,0.003134
950.0,0.0007424
951.0,0.003067
952.0,0.001503
953.0,0.002006
954.0,0.002543
955.0,0.002028
956.0,0.001972
957.0,0.001476
958.0,0.00292
959.0,0.002211
960.0,0.002502
961.0,0.002865
962.0,0.002682
963.0,0.003165
964.0,0.002848
965.0,0.003129
966.0,0.003114
967.0,0.00308
968.0,0.004405
969.0,0.004597
970.0,0.00414
971.0,0.004876
972.0,0.0046
973.0,0.003859
974.0,0.003622
975.0,0.003778
976.0,0.003521
977.0,0.004128
978.0,0.003852
979.0,0.004066
980.0,0.003761
981.0,0.004665
982.0,0.004394
983.0,0.004169
984.0,0.004808
985.0,0.004329
986.0,0.004888
987.0,0.00474
988.0,0.004712
989.0,0.004837
990.0,0.00465
991.0,0.004803
992.0,0.004817
993.0,0.00466
994.0,0.004785
995.0,0.004767
996.0,0.004722
997.0,0.004714
998.0,0.004673
999.0,0.00464
1000.0,0.004583
1001.0,0.004632
1002.0,0.004453
1003.0,0.004513
1004.0,0.004376
1005.0,0.004212
1006.0,0.004353
1007.0,0.004431
1008.0,0.004385
1009.0,0.004338
1010.0,0.0043
1011.0,0.004344
1012.0,0.004282
1013.0,0.004302
1014.0,0.004257
1015.0,0.004212
1016.0,0.004176
1017.0,0.004169
1018.0,0.004141
1019.0,0.004024
1020.0,0.004085
1021.0,0.004066
1022.0,0.004014
1023.0,0.004041
1024.0,0.003962
1025.0,0.004013
1026.0,0.003977
1027.0,0.003953
1028.0,0.00393
1029.0,0.003868
1030.0,0.003885
1031.0,0.003852
1032.0,0.003828
1033.0,0.003755
1034.0,0.003741
1035.0,0.003738
1036.0,0.003742
1037.0,0.003668
1038.0,0.00367
1039.0,0.003654
1040.0,0.003626
1041.0,0.003625
1042.0,0.003586
1043.0,0.003562
1044.0,0.003561
1045.0,0.003498
1046.0,0.003445
1047.0,0.003463
1048.0,0.003469
1049.0,0.003443
1050.0,0.003414
1051.0,0.003395
1052.0,0.003368
1053.0,0.003328
1054.0,0.003323
1055.0,0.003311
1056.0,0.003285
1057.0,0.003261
1058.0,0.003168
1059.0,0.003159
1060.0,0.003142
1061.0,0.003125
1062.0,0.003128
1063.0,0.003086
1064.0,0.003112
1065.0,0.003074
1066.0,0.003005
1067.0,0.003032
1068.0,0.002952
1069.0,0.002852
1070.0,0.002935
1071.0,0.002979
1072.0,0.002926
1073.0,0.002876
1074.0,0.002951
1075.0,0.002765
1076.0,0.002925
1077.0,0.002846
1078.0,0.002776
1079.0,0.002851
1080.0,0.002768
1081.0,0.002661
1082.0,0.002717
1083.0,0.00272
1084.0,0.002616
1085.0,0.002731
1086.0,0.002433
1087.0,0.002541
1088.0,0.002663
1089.0,0.002547
1090.0,0.002461
1091.0,0.002618
1092.0,0.002607
1093.0,0.002125
1094.0,0.00236
1095.0,0.002214
1096.0,0.00209
1097.0,0.002505
1098.0,0.002037
1099.0,0.002128
1100.0,0.001936
1101.0,0.001964
1102.0,0.001852
1103.0,0.001815
1104.0,0.001813
1105.0,0.002028
1106.0,0.001444
1107.0,0.00189
1108.0,0.001533
1109.0,0.001535
1110.0,0.001846
1111.0,0.001153
1112.0,0.00151
1113.0,0.0008776
1114.0,0.0009903
1115.0,0.0008008
1116.0,0.0006095
1117.0,0.0001986
1118.0,0.0006678
1119.0,0.0003034
1120.0,0.0003851
1121.0,0.0005255
1122.0,0.0002017
1123.0,0.0003423
1124.0,0.0002849
1125.0,0.0003797
1126.0,0.0001188
1127.0,0.0004291
1128.0,0.00024
1129.0,0.0002556
1130.0,0.0001623
1131.0,0.0008764
1132.0,0.0006634
1133.0,0.0003914
1134.0,8.904e-05
1135.0,3.272e-05
1136.0,0.0003151
1137.0,0.0008368
1138.0,0.0005661
1139.0,0.0009072
1140.0,0.0007292
1141.0,0.0005304
1142.0,0.000621
1143.0,0.0009247
1144.0,0.0002821
1145.0,0.0003614
1146.0,0.0003901
1147.0,0.0001237
1148.0,0.000773
1149.0,0.0005931
1150.0,0.0003
1151.0,0.0005366
1152.0,0.0006815
1153.0,0.0006676
1154.0,0.0003385
1155.0,0.0009005
1156.0,0.0007925
1157.0,0.0009096
1158.0,0.0008954
1159.0,0.0009818
1160.0,0.0008132
1161.0,0.001045
1162.0,0.001042
1163.0,0.001496
1164.0,0.00124
1165.0,0.001145
1166.0,0.001142
1167.0,0.001258
1168.0,0.001267
1169.0,0.001305
1170.0,0.001436
1171.0,0.001389
1172.0,0.00142
1173.0,0.001418
1174.0,0.0009435
1175.0,0.001383
1176.0,0.001546
1177.0,0.00146
1178.0,0.001035
1179.0,0.001544
1180.0,0.001335
1181.0,0.001381
1182.0,0.0008875
1183.0,0.001359
1184.0,0.001246
1185.0,0.001185
1186.0,0.001455
1187.0,0.001365
1188.0,0.0008876
1189.0,0.001256
1190.0,0.001401
1191.0,0.001304
1192.0,0.001415
1193.0,0.00134
1194.0,0.001386
1195.0,0.001291
1196.0,0.001228
1197.0,0.001385
1198.0,0.001245
1199.0,0.001019
1200.0,0.001297
1201.0,0.001234
1202.0,0.001227
1203.0,0.001218
1204.0,0.001031
1205.0,0.001255
1206.0,0.001412
1207.0,0.001206
1208.0,0.001194
1209.0,0.001216
1210.0,0.001274
1211.0,0.001194
1212.0,0.001165
1213.0,0.001329
1214.0,0.001193
1215.0,0.001162
1216.0,0.001313
1217.0,0.001266
1218.0,0.001293
1219.0,0.00127
1220.0,0.001287
1221.0,0.0013
1222.0,0.001256
1223.0,0.001238
1224.0,0.001222
1225.0,0.001274
1226.0,0.001283
1227.0,0.001161
1228.0,0.001284
1229.0,0.001271
1230.0,0.001242
1231.0,0.001284
1232.0,0.001272
1233.0,0.001211
1234.0,0.001273
1235.0,0.001259
1236.0,0.001266
1237.0,0.001239
1238.0,0.001253
1239.0,0.001233
1240.0,0.001234
1241.0,0.001221
1242.0,0.001217
1243.0,0.001203
1244.0,0.001207
1245.0,0.001209
1246.0,0.001198
1247.0,0.001189
1248.0,0.001182
1249.0,0.001184
1250.0,0.001172
1251.0,0.001151
1252.0,0.00115
1253.0,0.001133
1254.0,0.001115
1255.0,0.001137
1256.0,0.001094
1257.0,0.001082
1258.0,0.001105
1259.0,0.00105
1260.0,0.001054
1261.0,0.0009772
1262.0,0.0009377
1263.0,0.0009364
1264.0,0.0008456
1265.0,0.0009254
1266.0,0.0008781
1267.0,0.0008975
1268.0,0.0008379
1269.0,0.0004643
1270.0,0.0008842
1271.0,0.0009487
1272.0,0.0009505
1273.0,0.0009358
1274.0,0.0009379
1275.0,0.0009513
1276.0,0.0009602
1277.0,0.0009664
1278.0,0.0009879
1279.0,0.0009753
1280.0,0.0009603
1281.0,0.0009161
1282.0,0.0008844
1283.0,0.0009486
1284.0,0.0009673
1285.0,0.0009713
1286.0,0.000984
1287.0,0.000961
1288.0,0.0009589
1289.0,0.000917
1290.0,0.000945
1291.0,0.0009566
1292.0,0.0008794
1293.0,0.0009277
1294.0,0.0009173
1295.0,0.0009065
1296.0,0.0008523
1297.0,0.0007949
1298.0,0.0008696
1299.0,0.000913
1300.0,0.0007405
1301.0,0.000767
1302.0,0.0008572
1303.0,0.0007257
1304.0,0.000594
1305.0,0.0008284
1306.0,0.0008251
1307.0,0.0006061
1308.0,0.000717
1309.0,0.0008093
1310.0,0.0005873
1311.0,0.0006754
1312.0,0.0006536
1313.0,0.0006343
1314.0,0.0005533
1315.0,0.000544
1316.0,0.0006526
1317.0,0.0006099
1318.0,0.0006732
1319.0,0.0004961
1320.0,0.0004793
1321.0,0.0005722
1322.0,0.0005748
1323.0,0.0004079
1324.0,0.0004785
1325.0,0.0006235
1326.0,0.0005174
1327.0,0.0004874
1328.0,0.0004089
1329.0,0.0002908
1330.0,0.0003912
1331.0,0.0002175
1332.0,0.0002264
1333.0,0.0003256
1334.0,0.0002736
1335.0,0.0003917
1336.0,0.000297
1337.0,0.0002573
1338.0,0.0002797
1339.0,0.0002787
1340.0,0.0002708
1341.0,0.000259
1342.0,0.000273
1343.0,0.0001719
1344.0,9.955e-05
1345.0,0.0001466
1346.0,6.746e-05
1347.0,6.807e-05
1348.0,4.093e-06
1349.0,1.489e-05
1350.0,1.549e-05
1351.0,3.667e-06
1352.0,9.804e-07
1353.0,4.98e-08
1354.0,1.712e-07
1355.0,1.378e-09
1356.0,2.412e-08
1357.0,3.664e-08
1358.0,1.618e-09
1359.0,2.038e-10
1360.0,7.364e-10
1361.0,8.237e-13
1362.0,2.253e-15
1363.0,9.902e-10
1364.0,4.088e-10
1365.0,7.867e-16
1366.0,4.291e-09
1367.0,1.751e-09
1368.0,6.074e-18
1369.0,1.506e-10
1370.0,7.418e-11
1371.0,4.205e-12
1372.0,9.499e-10
1373.0,1.914e-08
1374.0,8.878e-08
1375.0,1.61e-07
1376.0,1.445e-07
1377.0,6.597e-08
1378.0,6.457e-07
1379.0,2.756e-08
1380.0,3.96e-08
1381.0,1.031e-09
1382.0,8.324e-10
1383.0,1.244e-11
1384.0,1.632e-10
1385.0,7.803e-10
1386.0,7.339e-10
1387.0,8.878e-08
1388.0,1.746e-09
1389.0,2.999e-07
1390.0,2.574e-07
1391.0,1.711e-07
1392.0,1.109e-08
1393.0,5.876e-08
1394.0,3.028e-08
1395.0,2.218e-10
1396.0,1.072e-12
1397.0,2.313e-08
1398.0,6.848e-07
1399.0,4.331e-07
1400.0,4.584e-13
1401.0,1.902e-12
1402.0,1.203e-06
1403.0,1.507e-06
1404.0,4.569e-07
1405.0,1.05e-10
1406.0,1.181e-06
1407.0,1.04e-07
1408.0,9.611e-07
1409.0,3.199e-07
1410.0,2.562e-07
1411.0,1.295e-06
1412.0,1.751e-06
1413.0,1.868e-05
1414.0,2e-07
1415.0,9.544e-08
1416.0,3.167e-05
1417.0,9.043e-06
1418.0,1.022e-05
1419.0,1.553e-06
1420.0,6.183e-06
1421.0,6.685e-06
1422.0,4.102e-05
1423.0,7.58e-06
1424.0,1.44e-05
1425.0,2.112e-05
1426.0,2.443e-05
1427.0,4.682e-05
1428.0,3.044e-06
1429.0,3.384e-05
1430.0,6.043e-05
1431.0,6.697e-05
1432.0,2.362e-06
1433.0,4.088e-05
1434.0,2.003e-05
1435.0,1.914e-05
1436.0,3.882e-05
1437.0,2.945e-05
1438.0,1.182e-05
1439.0,5.361e-05
1440.0,3.968e-05
1441.0,2.909e-05
1442.0,3.23e-05
1443.0,4.198e-05
1444.0,5.97e-05
1445.0,4.48e-05
1446.0,1.93e-05
1447.0,3.087e-05
1448.0,0.0001204
1449.0,0.0001018
1450.0,2.26e-05
1451.0,8.692e-06
1452.0,5.746e-05
1453.0,7.712e-05
1454.0,0.0001448
1455.0,6.211e-05
1456.0,8.381e-05
1457.0,0.0001183
1458.0,0.0001456
1459.0,0.0001738
1460.0,8.348e-05
1461.0,8.519e-05
1462.0,0.0001322
1463.0,3.79e-05
1464.0,0.0001622
1465.0,9.273e-05
1466.0,5.815e-05
1467.0,2.864e-05
1468.0,6.989e-05
1469.0,8.857e-05
1470.0,3.994e-05
1471.0,1.373e-05
1472.0,3.789e-05
1473.0,6.107e-05
1474.0,9.474e-05
1475.0,0.0001966
1476.0,6.115e-05
1477.0,6.08e-05
1478.0,5.728e-05
1479.0,0.0001181
1480.0,5.166e-05
1481.0,0.0001109
1482.0,5.093e-05
1483.0,0.0001492
1484.0,0.0001397
1485.0,0.0001212
1486.0,0.0001177
1487.0,4.874e-05
1488.0,9.277e-05
1489.0,0.0002007
1490.0,0.0001841
1491.0,0.0002139
1492.0,0.0001669
1493.0,0.0001876
1494.0,0.0002176
1495.0,0.0001894
1496.0,0.000175
1497.0,0.0002568
1498.0,0.0002001
1499.0,0.0002395
1500.0,0.0002841
1501.0,0.0002998
1502.0,0.0002476
1503.0,0.0002027
1504.0,0.0001562
1505.0,0.000194
1506.0,0.0002984
1507.0,0.0002837
1508.0,0.0002685
1509.0,0.0001935
1510.0,0.0003082
1511.0,0.0002948
1512.0,0.0002928
1513.0,0.0002622
1514.0,0.0002412
1515.0,0.0002998
1516.0,0.0002842
1517.0,0.000275
1518.0,0.0002738
1519.0,0.0002655
1520.0,0.0002895
1521.0,0.0003136
1522.0,0.0002939
1523.0,0.0003169
1524.0,0.0003048
1525.0,0.0002877
1526.0,0.0002921
1527.0,0.0002889
1528.0,0.0003112
1529.0,0.0002932
1530.0,0.0002866
1531.0,0.0002943
1532.0,0.000308
1533.0,0.0003078
1534.0,0.0003012
1535.0,0.0002981
1536.0,0.0003038
1537.0,0.0002958
1538.0,0.0002993
1539.0,0.000293
1540.0,0.0002938
1541.0,0.000295
1542.0,0.0002905
1543.0,0.0002956
1544.0,0.0002908
1545.0,0.0002965
1546.0,0.0002908
1547.0,0.0002864
1548.0,0.0002857
1549.0,0.0002878
1550.0,0.000285
1551.0,0.0002863
1552.0,0.000283
1553.0,0.0002811
1554.0,0.0002778
1555.0,0.000278
1556.0,0.0002771
1557.0,0.0002797
1558.0,0.0002775
1559.0,0.0002751
1560.0,0.0002764
1561.0,0.0002777
1562.0,0.0002733
1563.0,0.0002706
1564.0,0.0002711
1565.0,0.0002712
1566.0,0.0002669
1567.0,0.0002668
1568.0,0.0002634
1569.0,0.0002647
1570.0,0.0002665
1571.0,0.0002679
1572.0,0.0002657
1573.0,0.0002632
1574.0,0.0002532
1575.0,0.0002496
1576.0,0.0002449
1577.0,0.000238
1578.0,0.0002492
1579.0,0.0002506
1580.0,0.0002523
1581.0,0.000248
1582.0,0.0002426
1583.0,0.000243
1584.0,0.0002474
1585.0,0.0002496
1586.0,0.000246
1587.0,0.0002414
1588.0,0.0002344
1589.0,0.0002267
1590.0,0.0002311
1591.0,0.0002363
1592.0,0.0002425
1593.0,0.000246
1594.0,0.0002448
1595.0,0.0002412
1596.0,0.0002334
1597.0,0.0002386
1598.0,0.0002417
1599.0,0.0002384
1600.0,0.0002364
1601.0,0.0002324
1602.0,0.0002324
1603.0,0.0002344
1604.0,0.000232
1605.0,0.0002313
1606.0,0.0002281
1607.0,0.0002296
1608.0,0.0002287
1609.0,0.0002222
1610.0,0.0002171
1611.0,0.0002204
1612.0,0.0002225
1613.0,0.0002222
1614.0,0.0002217
1615.0,0.0002163
1616.0,0.0002124
1617.0,0.000216
1618.0,0.0002193
1619.0,0.0002145
1620.0,0.0002097
1621.0,0.0002115
1622.0,0.0002143
1623.0,0.0002169
1624.0,0.0002137
1625.0,0.0002124
1626.0,0.0002123
1627.0,0.0002135
1628.0,0.0002123
1629.0,0.00021
1630.0,0.0002082
1631.0,0.0002063
1632.0,0.0002054
1633.0,0.0001982
1634.0,0.0002029
1635.0,0.0001988
1636.0,0.0001971
1637.0,0.0001947
1638.0,0.0001817
1639.0,0.0001896
1640.0,0.0001794
1641.0,0.0001871
1642.0,0.0001907
1643.0,0.0001775
1644.0,0.0001898
1645.0,0.0001828
1646.0,0.0001769
1647.0,0.0001914
1648.0,0.0001755
1649.0,0.0001854
1650.0,0.0001865
1651.0,0.0001701
1652.0,0.0001833
1653.0,0.0001849
1654.0,0.0001729
1655.0,0.000184
1656.0,0.0001798
1657.0,0.000181
1658.0,0.0001835
1659.0,0.0001815
1660.0,0.0001826
1661.0,0.000181
1662.0,0.000175
1663.0,0.0001795
1664.0,0.0001772
1665.0,0.0001654
1666.0,0.0001299
1667.0,0.0001629
1668.0,0.0001701
1669.0,0.0001707
1670.0,0.0001736
1671.0,0.0001679
1672.0,0.0001657
1673.0,0.0001693
1674.0,0.0001646
1675.0,0.0001618
1676.0,0.0001627
1677.0,0.0001618
1678.0,0.0001561
1679.0,0.0001602
1680.0,0.0001531
1681.0,0.0001475
1682.0,0.0001562
1683.0,0.0001591
1684.0,0.0001444
1685.0,0.0001601
1686.0,0.0001593
1687.0,0.0001518
1688.0,0.0001574
1689.0,0.0001553
1690.0,0.0001541
1691.0,0.0001376
1692.0,0.0001525
1693.0,0.0001572
1694.0,0.0001499
1695.0,0.0001546
1696.0,0.0001543
1697.0,0.0001253
1698.0,0.0001519
1699.0,0.0001494
1700.0,0.0001445
1702.0,0.000147
1705.0,0.0001407
1710.0,0.0001311
1715.0,0.0001299
1720.0,0.0001273
1725.0,0.0001162
1730.0,0.0001137
1735.0,0.0001048
1740.0,0.000105
1745.0,9.66e-05
1750.0,0.0001032
1755.0,9.269e-05
1760.0,9.656e-05
1765.0,7.57e-05
1770.0,8.074e-05
1775.0,6.181e-05
1780.0,5.117e-05
1785.0,3.644e-05
1790.0,4.26e-05
1795.0,1.876e-05
1800.0,1.277e-05
1805.0,4.726e-06
1810.0,3.053e-06
1815.0,8.564e-07
1820.0,2.125e-07
1825.0,2.775e-07
1830.0,6.734e-10
1835.0,1.02e-09
1840.0,5.949e-12
1845.0,6.361e-10
1850.0,2.871e-10
1855.0,2.744e-11
1860.0,1.573e-09
1865.0,2.192e-09
1870.0,1.199e-14
1875.0,2.167e-14
1880.0,1.154e-08
1885.0,6.15e-09
1890.0,3.375e-08
1895.0,1.958e-08
1900.0,8.363e-11
1905.0,5.697e-11
1910.0,2.759e-09
1915.0,2.688e-09
1920.0,7.058e-08
1925.0,1.661e-07
1930.0,9.589e-08
1935.0,7.387e-07
1940.0,7.372e-07
1945.0,3.13e-06
1950.0,6.301e-06
1955.0,5.541e-06
1960.0,1.025e-05
1965.0,1.553e-05
1970.0,2.27e-05
1975.0,2.6e-05
1980.0,2.612e-05
1985.0,2.828e-05
1990.0,2.911e-05
1995.0,3.085e-05
2000.0,3.249e-05
2005.0,2.648e-05
2010.0,3.97e-05
2015.0,2.978e-05
2020.0,3.2e-05
2025.0,3.504e-05
2030.0,3.146e-05
2035.0,3.455e-05
2040.0,3.23e-05
2045.0,3.317e-05
2050.0,3.352e-05
2055.0,3.164e-05
2060.0,3.021e-05
2065.0,3.058e-05
2070.0,2.987e-05
2075.0,3.043e-05
2080.0,2.933e-05
2085.0,2.89e-05
2090.0,2.901e-05
2095.0,2.782e-05
2100.0,2.546e-05
2105.0,2.76e-05
2110.0,2.608e-05
2115.0,2.663e-05
2120.0,2.461e-05
2125.0,2.484e-05
2130.0,2.502e-05
2135.0,2.502e-05
2140.0,2.503e-05
2145.0,2.454e-05
2150.0,2.258e-05
2155.0,2.24e-05
2160.0,2.199e-05
2165.0,1.978e-05
2170.0,2.101e-05
2175.0,2.02e-05
2180.0,2.068e-05
2185.0,1.808e-05
2190.0,1.955e-05
2195.0,1.918e-05
2200.0,1.641e-05
2205.0,1.734e-05
2210.0,1.891e-05
2215.0,1.778e-05
2220.0,1.808e-05
2225.0,1.731e-05
2230.0,1.726e-05
2235.0,1.662e-05
2240.0,1.626e-05
2245.0,1.536e-05
2250.0,1.56e-05
2255.0,1.425e-05
2260.0,1.383e-05
2265.0,1.414e-05
2270.0,1.303e-05
2275.0,1.269e-05
2280.0,1.333e-05
2285.0,1.223e-05
2290.0,1.214e-05
2295.0,1.169e-05
2300.0,1.088e-05
2305.0,1.09e-05
2310.0,1.21e-05
2315.0,1.053e-05
2320.0,8.964e-06
2325.0,1.018e-05
2330.0,1.006e-05
2335.0,1.028e-05
2340.0,7.548e-06
2345.0,8.62e-06
2350.0,6.562e-06
2355.0,7.745e-06
2360.0,8.247e-06
2365.0,8.095e-06
2370.0,4.318e-06
2375.0,6.875e-06
2380.0,6.506e-06
2385.0,4.407e-06
2390.0,5.333e-06
2395.0,5.91e-06
2400.0,6.51e-06
2405.0,4.719e-06
2410.0,4.686e-06
2415.0,3.616e-06
2420.0,3.475e-06
2425.0,4.439e-06
2430.0,6.264e-06
2435.0,1.737e-06
2440.0,5.987e-06
2445.0,2.489e-06
2450.0,1.516e-06
2455.0,3.026e-06
2460.0,4.156e-06
2465.0,2.804e-06
2470.0,1.792e-06
2475.0,1.731e-06
2480.0,7.831e-07
2485.0,5.009e-07
2490.0,2.844e-07
2495.0,2.457e-07
2500.0,6.215e-07
2505.0,1.236e-07
2510.0,1.825e-07
2515.0,3.817e-08
2520.0,2.136e-08
2525.0,2.433e-09
2530.0,1.692e-11
2535.0,3.743e-12
2540.0,8.879e-12
2545.0,6.886e-16
2550.0,2.792e-18
2555.0,1.34e-14
2560.0,4.022e-16
2565.0,9.003e-20
2570.0,2.681e-24
2575.0,1.6960000000000001e-34
2580.0,1.7680000000000001e-28
2585.0,3.6950000000000004e-42
2590.0,2.306e-38
2595.0,4.486e-40
2600.0,3.694e-35
2605.0,4.082e-42
2610.0,1.405e-41
2615.0,1.4009999999999999e-45
2620.0,1.238e-35
2625.0,2.267e-35
2630.0,0.0
2635.0,1.181e-21
2640.0,2.5559999999999996e-22
2645.0,1.114e-24
2650.0,1.11e-25
2655.0,1.3350000000000002e-34
2660.0,1.124e-31
2665.0,1.121e-44
2670.0,0.0
2675.0,5.464999999999999e-44
2680.0,2.2780000000000003e-30
2685.0,2.176e-31
2690.0,8.143e-31
2695.0,3.194e-33
2700.0,9.304999999999999e-29
2705.0,2.639e-26
2710.0,2.101e-31
2715.0,2.653e-29
2720.0,0.0
2725.0,5.941e-27
2730.0,1.732e-24
2735.0,1.9750000000000001e-26
2740.0,3.568e-32
2745.0,4.6e-27
2750.0,2.578e-26
2755.0,4.148e-28
2760.0,6.215e-23
2765.0,2.917e-29
2770.0,1.4330000000000002e-26
2775.0,1.769e-23
2780.0,8.239e-21
2785.0,3.093e-20
2790.0,7.053e-18
2795.0,1.552e-18
2800.0,4.953e-15
2805.0,9.261e-17
2810.0,3.714e-13
2815.0,1.108e-13
2820.0,1.353e-15
2825.0,1.188e-11
2830.0,2.582e-10
2835.0,3.556e-15
2840.0,7.609e-12
2845.0,2.633e-09
2850.0,4.558e-11
2855.0,1.821e-11
2860.0,9.465e-10
2865.0,6.98e-09
2870.0,1.77e-10
2875.0,1.699e-08
2880.0,1.071e-08
2885.0,1.764e-08
2890.0,7.497e-09
2895.0,1.28e-07
2900.0,3.564e-08
2905.0,4.123e-09
2910.0,1.306e-07
2915.0,5.537e-08
2920.0,1.376e-07
2925.0,4.899e-08
2930.0,2.974e-07
2935.0,3.28e-07
2940.0,7.321e-08
2945.0,6.285e-08
2950.0,2.544e-07
2955.0,1.131e-07
2960.0,2.248e-07
2965.0,3.813e-07
2970.0,1.486e-08
2975.0,3.766e-08
2980.0,5.862e-08
2985.0,3.465e-07
2990.0,5.265e-07
2995.0,1.989e-07
3000.0,3.792e-07
3005.0,1.286e-07
3010.0,3.32e-07
3015.0,2.57e-07
3020.0,2.311e-08
3025.0,3.549e-07
3030.0,2.793e-07
3035.0,1.058e-07
3040.0,8.267e-08
3045.0,1.779e-07
3050.0,4.019e-08
3055.0,9.821e-09
3060.0,2.779e-07
3065.0,1.171e-07
3070.0,6.572e-08
3075.0,2.59e-07
3080.0,1.501e-07
3085.0,6.609e-08
3090.0,8.994e-08
3095.0,2.207e-08
3100.0,1.805e-07
3105.0,3.363e-08
3110.0,2.813e-08
3115.0,8.465e-08
3120.0,4.196e-07
3125.0,1.222e-07
3130.0,2.44e-07
3135.0,4.925e-07
3140.0,1.294e-07
3145.0,1.269e-07
3150.0,2.696e-07
3155.0,2.267e-07
3160.0,3.78e-07
3165.0,5.993e-07
3170.0,5.302e-07
3175.0,3.699e-07
3180.0,4.385e-07
3185.0,3.043e-07
3190.0,1.587e-07
3195.0,8.754e-08
3200.0,1.228e-08
3205.0,8.021e-09
3210.0,3.341e-09
3215.0,1.36e-08
3220.0,4.788e-08
3225.0,5.487e-09
3230.0,9.117e-09
3235.0,2.608e-07
3240.0,1.172e-07
3245.0,2.211e-08
3250.0,8.205e-08
3255.0,3.587e-07
3260.0,3.492e-08
3265.0,7.595e-08
3270.0,3.558e-08
3275.0,2.181e-07
3280.0,9.185e-08
3285.0,4.087e-07
3290.0,3.049e-07
3295.0,3.667e-08
3300.0,5.46e-08
3305.0,1.263e-07
3310.0,1.197e-07
3315.0,1.709e-10
3320.0,1.077e-09
3325.0,1.003e-07
3330.0,1.541e-07
3335.0,3.013e-07
3340.0,1.093e-07
3345.0,1.058e-07
3350.0,2.68e-07
3355.0,1.069e-07
3360.0,1.651e-07
3365.0,2.343e-07
3370.0,1.119e-07
3375.0,2.754e-07
3380.0,1.476e-07
3385.0,2.36e-07
3390.0,3.11e-07
3395.0,3.014e-07
3400.0,4.094e-07
3405.0,1.226e-07
3410.0,2.172e-07
3415.0,2.106e-07
3420.0,4.259e-07
3425.0,3.025e-07
3430.0,2.543e-07
3435.0,3.652e-07
3440.0,2.315e-07
3445.0,3.478e-07
3450.0,3.394e-07
3455.0,2.406e-07
3460.0,3.875e-07
3465.0,2.849e-07
3470.0,3.749e-07
3475.0,3.241e-07
3480.0,3.321e-07
3485.0,3.62e-07
3490.0,3.007e-07
3495.0,3.639e-07
3500.0,3.512e-07
3505.0,3.461e-07
3510.0,3.504e-07
3515.0,3.334e-07
3520.0,3.562e-07
3525.0,3.303e-07
3530.0,3.197e-07
3535.0,2.596e-07
3540.0,2.452e-07
3545.0,2.602e-07
3550.0,2.949e-07
3555.0,2.457e-07
3560.0,3.018e-07
3565.0,3.011e-07
3570.0,2.242e-07
3575.0,2.315e-07
3580.0,2.811e-07
3585.0,2.437e-07
3590.0,2.548e-07
3595.0,2.608e-07
3600.0,2.793e-07
3605.0,2.784e-07
3610.0,2.509e-07
3615.0,2.514e-07
3620.0,3.162e-07
3625.0,2.68e-07
3630.0,2.605e-07
3635.0,2.685e-07
3640.0,3.046e-07
3645.0,2.724e-07
3650.0,2.58e-07
3655.0,2.832e-07
3660.0,2.802e-07
3665.0,2.567e-07
3670.0,1.904e-07
3675.0,1.057e-07
3680.0,1.975e-07
3685.0,2.287e-07
3690.0,2.363e-07
3695.0,2.475e-07
3700.0,2.696e-07
3705.0,2.641e-07
3710.0,2.232e-07
3715.0,2.191e-07
3720.0,2.521e-07
3725.0,2.592e-07
3730.0,2.184e-07
3735.0,1.965e-07
3740.0,2.024e-07
3745.0,2.416e-07
3750.0,2.153e-07
3755.0,2.067e-07
3760.0,2.022e-07
3765.0,1.934e-07
3770.0,2.091e-07
3775.0,2.055e-07
3780.0,2.192e-07
3785.0,1.967e-07
3790.0,1.697e-07
3795.0,1.978e-07
3800.0,2.255e-07
3805.0,2.088e-07
3810.0,1.801e-07
3815.0,1.664e-07
3820.0,2.163e-07
3825.0,2.102e-07
3830.0,2.133e-07
3835.0,1.615e-07
3840.0,1.954e-07
3845.0,1.888e-07
3850.0,1.895e-07
3855.0,1.794e-07
3860.0,1.646e-07
3865.0,1.654e-07
3870.0,1.464e-07
3875.0,1.301e-07
3880.0,1.244e-07
3885.0,1.292e-07
3890.0,1.31e-07
3895.0,1.46e-07
3900.0,1.568e-07
3905.0,1.557e-07
3910.0,1.357e-07
3915.0,1.311e-07
3920.0,1.305e-07
3925.0,1.273e-07
3930.0,1.321e-07
3935.0,1.386e-07
3940.0,1.402e-07
3945.0,1.427e-07
3950.0,1.449e-07
3955.0,1.464e-07
3960.0,1.474e-07
3965.0,1.483e-07
3970.0,1.459e-07
3975.0,1.407e-07
3980.0,1.379e-07
3985.0,1.38e-07
3990.0,1.354e-07
3995.0,1.314e-07
4000.0,1.252e-07
