interpolation:linear
wavelength,value
280.0,1.4599999999999998e-23
280.5,5.104e-22
281.0,2.788e-21
281.5,9.405e-20
282.0,7.747e-19
282.5,3.005e-18
283.0,1.345e-17
283.5,2.293e-17
284.0,3.341e-16
284.5,9.574e-16
285.0,3.999e-16
285.5,2.236e-15
286.0,9.261e-15
286.5,4.399e-14
287.0,1.3e-13
287.5,5.199e-13
288.0,1.031e-11
288.5,1.811e-11
289.0,3.805e-11
289.5,9.986e-11
290.0,2.571e-10
290.5,4.988e-10
291.0,1.025e-09
291.5,2.83e-09
292.0,5.502e-09
292.5,7.255e-09
293.0,1.457e-08
293.5,3.304e-08
294.0,4.907e-08
294.5,9.814e-09
295.0,1.64e-08
295.5,2.62e-08
296.0,4.471e-08
296.5,5.56e-08
297.0,6.847e-08
297.5,1.601e-07
298.0,2.247e-07
298.5,2.07e-07
299.0,4.191e-07
299.5,6e-07
300.0,6.08e-07
300.5,8.101e-07
301.0,1.283e-06
301.5,1.814e-06
302.0,1.461e-06
302.5,1.524e-06
303.0,2.816e-06
303.5,3.595e-06
304.0,3.38e-06
304.5,5.117e-06
305.0,8.136e-06
305.5,9.752e-06
306.0,9.637e-06
306.5,1.246e-05
307.0,2.039e-05
307.5,3.03e-05
308.0,3.264e-05
308.5,4.103e-05
309.0,3.884e-05
309.5,4.115e-05
310.0,4.089e-05
310.5,6.618e-05
311.0,8.347e-05
311.5,8.093e-05
312.0,8.412e-05
312.5,0.0001066
313.0,0.0001186
313.5,0.0001125
314.0,0.0001511
314.5,0.000161
315.0,0.000219
315.5,0.0001672
316.0,0.0001704
316.5,0.0002813
317.0,0.0003484
317.5,0.0003484
318.0,0.0002995
318.5,0.0004512
319.0,0.0005926
319.5,0.0004109
320.0,0.0004849
320.5,0.0007439
321.0,0.0008036
321.5,0.000786
322.0,0.0006806
322.5,0.0005984
323.0,0.0006818
323.5,0.001714
324.0,0.002083
324.5,0.001906
325.0,0.0008792
325.5,0.001267
326.0,0.00296
326.5,0.00337
327.0,0.003204
327.5,0.002912
328.0,0.002173
328.5,0.002825
329.0,0.004047
329.5,0.004889
330.0,0.00469
330.5,0.003248
331.0,0.00317
331.5,0.003537
332.0,0.004523
332.5,0.004822
333.0,0.004605
333.5,0.00368
334.0,0.003692
334.5,0.004908
335.0,0.004993
335.5,0.006238
336.0,0.004316
336.5,0.004545
337.0,0.003517
337.5,0.00428
338.0,0.004684
338.5,0.005869
339.0,0.005857
339.5,0.005605
340.0,0.006086
340.5,0.005548
341.0,0.005817
341.5,0.00542
342.0,0.006505
342.5,0.006112
343.0,0.006662
343.5,0.006235
344.0,0.004282
344.5,0.004602
345.0,0.006198
345.5,0.006375
346.0,0.005445
346.5,0.006186
347.0,0.006591
347.5,0.005316
348.0,0.006119
348.5,0.006152
349.0,0.005722
349.5,0.005661
350.0,0.007009
350.5,0.007394
351.0,0.006575
351.5,0.006316
352.0,0.006837
352.5,0.005369
353.0,0.006789
353.5,0.007279
354.0,0.007572
354.5,0.007681
355.0,0.007643
355.5,0.006916
356.0,0.007247
356.5,0.00619
357.0,0.005114
357.5,0.006267
358.0,0.004972
358.5,0.004252
359.0,0.005943
359.5,0.007549
360.0,0.008013
360.5,0.006416
361.0,0.005858
361.5,0.006753
362.0,0.005845
362.5,0.008093
363.0,0.007272
363.5,0.006699
364.0,0.008196
364.5,0.007006
365.0,0.007135
365.5,0.008959
366.0,0.009497
366.5,0.008929
367.0,0.008699
367.5,0.00903
368.0,0.007903
368.5,0.007974
369.0,0.008615
369.5,0.009187
370.0,0.009798
370.5,0.007607
371.0,0.008131
371.5,0.01018
372.0,0.006756
372.5,0.008103
373.0,0.008245
373.5,0.005365
374.0,0.007798
374.5,0.00646
375.0,0.006281
375.5,0.009381
376.0,0.007779
376.5,0.008063
377.0,0.00854
377.5,0.009994
378.0,0.01084
378.5,0.01024
379.0,0.008456
379.5,0.007726
380.0,0.008035
380.5,0.009734
381.0,0.009757
381.5,0.007737
382.0,0.006873
382.5,0.00586
383.0,0.005427
383.5,0.005229
384.0,0.005769
384.5,0.008488
385.0,0.00842
385.5,0.007844
386.0,0.006719
386.5,0.008828
387.0,0.007338
387.5,0.008244
388.0,0.007613
388.5,0.007527
389.0,0.008127
389.5,0.009846
390.0,0.009884
390.5,0.009098
391.0,0.01071
391.5,0.01093
392.0,0.009207
392.5,0.008245
393.0,0.004589
393.5,0.003337
394.0,0.006791
394.5,0.008636
395.0,0.01054
395.5,0.01071
396.0,0.009288
396.5,0.005431
397.0,0.004077
397.5,0.008295
398.0,0.01162
398.5,0.01201
399.0,0.01301
399.5,0.01297
400.0,0.01347
401.0,0.01331
402.0,0.01404
403.0,0.01334
404.0,0.01314
405.0,0.01315
406.0,0.01293
407.0,0.01272
408.0,0.01321
409.0,0.01414
410.0,0.01236
411.0,0.01339
412.0,0.01439
413.0,0.01404
414.0,0.01421
415.0,0.01424
416.0,0.01449
417.0,0.01413
418.0,0.01387
419.0,0.01406
420.0,0.014
421.0,0.01464
422.0,0.0139
423.0,0.01356
424.0,0.01433
425.0,0.0143
426.0,0.01392
427.0,0.01367
428.0,0.01333
429.0,0.01263
430.0,0.01106
431.0,0.01095
432.0,0.01412
433.0,0.01419
434.0,0.01317
435.0,0.01376
436.0,0.01551
437.0,0.01529
438.0,0.0139
439.0,0.01434
440.0,0.01477
441.0,0.01526
442.0,0.01634
443.0,0.01591
444.0,0.01627
445.0,0.01594
446.0,0.01524
447.0,0.01648
448.0,0.01672
449.0,0.01674
450.0,0.01718
451.0,0.0178
452.0,0.01715
453.0,0.01613
454.0,0.01684
455.0,0.01691
456.0,0.01727
457.0,0.01749
458.0,0.01682
459.0,0.01665
460.0,0.01662
461.0,0.01696
462.0,0.01708
463.0,0.01699
464.0,0.01676
465.0,0.01659
466.0,0.01677
467.0,0.01644
468.0,0.01658
469.0,0.01661
470.0,0.01605
471.0,0.01602
472.0,0.01688
473.0,0.01665
474.0,0.01665
475.0,0.01674
476.0,0.01615
477.0,0.01609
478.0,0.01643
479.0,0.0162
480.0,0.01612
481.0,0.01632
482.0,0.01635
483.0,0.01615
484.0,0.01586
485.0,0.01516
486.0,0.01329
487.0,0.01395
488.0,0.01528
489.0,0.01529
490.0,0.01602
491.0,0.01569
492.0,0.01479
493.0,0.01525
494.0,0.01539
495.0,0.0155
496.0,0.01554
497.0,0.0157
498.0,0.01485
499.0,0.01491
500.0,0.01436
501.0,0.01397
502.0,0.01364
503.0,0.01407
504.0,0.01362
505.0,0.01404
506.0,0.01447
507.0,0.01378
508.0,0.01337
509.0,0.01378
510.0,0.01373
511.0,0.01409
512.0,0.01422
513.0,0.01341
514.0,0.01327
515.0,0.01308
516.0,0.013
517.0,0.01151
518.0,0.01206
519.0,0.01261
520.0,0.01301
521.0,0.01307
522.0,0.013
523.0,0.01271
524.0,0.01306
525.0,0.0131
526.0,0.01241
527.0,0.01159
528.0,0.01215
529.0,0.01271
530.0,0.01244
531.0,0.01254
532.0,0.01205
533.0,0.01166
534.0,0.01197
535.0,0.01222
536.0,0.01233
537.0,0.01183
538.0,0.01201
539.0,0.01187
540.0,0.01133
541.0,0.01135
542.0,0.01163
543.0,0.01145
544.0,0.01159
545.0,0.0115
546.0,0.0115
547.0,0.01145
548.0,0.01128
549.0,0.01128
550.0,0.01137
551.0,0.01119
552.0,0.01123
553.0,0.01098
554.0,0.01119
555.0,0.01116
556.0,0.01096
557.0,0.01055
558.0,0.01039
559.0,0.01011
560.0,0.01016
561.0,0.01021
562.0,0.01005
563.0,0.01024
564.0,0.0099
565.0,0.009755
566.0,0.00956
567.0,0.009683
568.0,0.009538
569.0,0.00926
570.0,0.009207
571.0,0.009101
572.0,0.00927
573.0,0.009333
574.0,0.009277
575.0,0.009087
576.0,0.008999
577.0,0.009099
578.0,0.008969
579.0,0.009016
580.0,0.009201
581.0,0.009264
582.0,0.009451
583.0,0.009479
584.0,0.009562
585.0,0.009323
586.0,0.009121
587.0,0.009303
588.0,0.009054
589.0,0.00798
590.0,0.008314
591.0,0.008771
592.0,0.008607
593.0,0.008685
594.0,0.008557
595.0,0.008283
596.0,0.008563
597.0,0.008396
598.0,0.008312
599.0,0.008267
600.0,0.008229
601.0,0.008127
602.0,0.008048
603.0,0.008168
604.0,0.0083
605.0,0.008263
606.0,0.008242
607.0,0.008344
608.0,0.008277
609.0,0.008318
610.0,0.008288
611.0,0.008361
612.0,0.008365
613.0,0.008287
614.0,0.008198
615.0,0.008399
616.0,0.008142
617.0,0.008141
618.0,0.00847
619.0,0.008396
620.0,0.008455
621.0,0.008468
622.0,0.008372
623.0,0.008247
624.0,0.008104
625.0,0.008088
626.0,0.008209
627.0,0.008299
628.0,0.007698
629.0,0.008086
630.0,0.007905
631.0,0.008109
632.0,0.008027
633.0,0.008288
634.0,0.008226
635.0,0.008372
636.0,0.008277
637.0,0.00843
638.0,0.00853
639.0,0.008451
640.0,0.008388
641.0,0.008398
642.0,0.008376
643.0,0.008502
644.0,0.008486
645.0,0.008497
646.0,0.008299
647.0,0.008174
648.0,0.008187
649.0,0.008024
650.0,0.008094
651.0,0.008452
652.0,0.008071
653.0,0.008345
654.0,0.00826
655.0,0.007926
656.0,0.007035
657.0,0.007234
658.0,0.008113
659.0,0.008184
660.0,0.008217
661.0,0.008281
662.0,0.008305
663.0,0.008142
664.0,0.008238
665.0,0.008247
666.0,0.008258
667.0,0.008258
668.0,0.00827
669.0,0.008399
670.0,0.008361
671.0,0.008362
672.0,0.008293
673.0,0.008422
674.0,0.008389
675.0,0.008312
676.0,0.008367
677.0,0.008282
678.0,0.008303
679.0,0.008166
680.0,0.008223
681.0,0.008157
682.0,0.008134
683.0,0.008105
684.0,0.00805
685.0,0.008111
686.0,0.008047
687.0,0.005236
688.0,0.006098
689.0,0.006115
690.0,0.006404
691.0,0.006743
692.0,0.00701
693.0,0.006957
694.0,0.006913
695.0,0.007231
696.0,0.007237
697.0,0.007754
698.0,0.0076
699.0,0.007362
700.0,0.007264
701.0,0.00716
702.0,0.007205
703.0,0.007229
704.0,0.007468
705.0,0.007461
706.0,0.00745
707.0,0.007442
708.0,0.007457
709.0,0.007467
710.0,0.007422
711.0,0.007407
712.0,0.007387
713.0,0.007269
714.0,0.00729
715.0,0.007021
716.0,0.006989
717.0,0.005953
718.0,0.005471
719.0,0.005014
720.0,0.005228
721.0,0.005791
722.0,0.006633
723.0,0.006161
724.0,0.005529
725.0,0.00542
726.0,0.005641
727.0,0.005757
728.0,0.005357
729.0,0.005567
730.0,0.005861
731.0,0.005593
732.0,0.005997
733.0,0.006362
734.0,0.006518
735.0,0.00636
736.0,0.006311
737.0,0.00633
738.0,0.006462
739.0,0.006314
740.0,0.006476
741.0,0.006398
742.0,0.006395
743.0,0.006533
744.0,0.006494
745.0,0.00648
746.0,0.006487
747.0,0.006483
748.0,0.006452
749.0,0.006363
750.0,0.006349
751.0,0.006275
752.0,0.006294
753.0,0.006318
754.0,0.006322
755.0,0.006272
756.0,0.006258
757.0,0.006251
758.0,0.006155
759.0,0.005959
760.0,0.001012
761.0,0.0005403
762.0,0.00297
763.0,0.001513
764.0,0.002239
765.0,0.002945
766.0,0.003578
767.0,0.004481
768.0,0.005199
769.0,0.005326
770.0,0.005555
771.0,0.00562
772.0,0.005623
773.0,0.005639
774.0,0.005586
775.0,0.005518
776.0,0.005558
777.0,0.005458
778.0,0.005398
779.0,0.00538
780.0,0.005332
781.0,0.005322
782.0,0.005345
783.0,0.005243
784.0,0.005258
785.0,0.005208
786.0,0.005249
787.0,0.005115
788.0,0.005036
789.0,0.00501
790.0,0.004834
791.0,0.004886
792.0,0.004842
793.0,0.004747
794.0,0.004854
795.0,0.004909
796.0,0.004693
797.0,0.0047
798.0,0.004855
799.0,0.004794
800.0,0.00467
801.0,0.00463
802.0,0.004605
803.0,0.004537
804.0,0.004539
805.0,0.00452
806.0,0.004655
807.0,0.004567
808.0,0.004547
809.0,0.004416
810.0,0.004357
811.0,0.0043
812.0,0.004146
813.0,0.004032
814.0,0.003503
815.0,0.003464
816.0,0.003228
817.0,0.003272
818.0,0.003142
819.0,0.003495
820.0,0.003309
821.0,0.003869
822.0,0.003733
823.0,0.002495
824.0,0.0036
825.0,0.003801
826.0,0.003597
827.0,0.003815
828.0,0.003181
829.0,0.003571
830.0,0.003511
831.0,0.003507
832.0,0.003385
833.0,0.003591
834.0,0.003447
835.0,0.003814
836.0,0.003613
837.0,0.003793
838.0,0.003644
839.0,0.003722
840.0,0.003797
841.0,0.003716
842.0,0.003719
843.0,0.003724
844.0,0.003646
845.0,0.003762
846.0,0.003737
847.0,0.003654
848.0,0.003606
849.0,0.003486
850.0,0.003321
851.0,0.003485
852.0,0.003451
853.0,0.003312
854.0,0.002845
855.0,0.00312
856.0,0.003399
857.0,0.003469
858.0,0.003432
859.0,0.00343
860.0,0.003429
861.0,0.003401
862.0,0.003447
863.0,0.00352
864.0,0.003336
865.0,0.003298
866.0,0.002956
867.0,0.003076
868.0,0.003337
869.0,0.003258
870.0,0.00334
871.0,0.003283
872.0,0.00326
873.0,0.003242
874.0,0.003192
875.0,0.003115
876.0,0.003136
877.0,0.003155
878.0,0.003176
879.0,0.003115
880.0,0.003036
881.0,0.002975
882.0,0.003023
883.0,0.003024
884.0,0.002997
885.0,0.003003
886.0,0.002837
887.0,0.002869
888.0,0.002892
889.0,0.002927
890.0,0.002876
891.0,0.002872
892.0,0.002752
893.0,0.002648
894.0,0.002516
895.0,0.002344
896.0,0.002196
897.0,0.001873
898.0,0.002038
899.0,0.001528
900.0,0.002067
901.0,0.001593
902.0,0.00186
903.0,0.001882
904.0,0.002399
905.0,0.0023
906.0,0.002143
907.0,0.001716
908.0,0.001753
909.0,0.001888
910.0,0.00165
911.0,0.001764
912.0,0.001858
913.0,0.001658
914.0,0.001654
915.0,0.001767
916.0,0.001499
917.0,0.001895
918.0,0.001522
919.0,0.00192
920.0,0.001953
921.0,0.002018
922.0,0.001785
923.0,0.001937
924.0,0.00181
925.0,0.001763
926.0,0.001775
927.0,0.001984
928.0,0.001431
929.0,0.001298
930.0,0.001014
931.0,0.0009573
932.0,0.0006852
933.0,0.0005541
934.0,0.0003007
935.0,0.0005634
936.0,0.000349
937.0,0.0003521
938.0,0.0004316
939.0,0.0008978
940.0,0.001077
941.0,0.000807
942.0,0.0009313
943.0,0.0006083
944.0,0.0006394
945.0,0.0008187
946.0,0.0004133
947.0,0.0008167
948.0,0.000598
949.0,0.00109
950.0,0.0002985
951.0,0.001067
952.0,0.0005683
953.0,0.0007334
954.0,0.0008985
955.0,0.0007377
956.0,0.0007144
957.0,0.000559
958.0,0.001009
959.0,0.0007956
960.0,0.0008892
961.0,0.0009975
962.0,0.0009398
963.0,0.001084
964.0,0.0009881
965.0,0.001071
966.0,0.00107
967.0,0.001063
968.0,0.00146
969.0,0.001496
970.0,0.001379
971.0,0.001579
972.0,0.001507
973.0,0.001285
974.0,0.001214
975.0,0.001265
976.0,0.001192
977.0,0.001373
978.0,0.001282
979.0,0.001346
980.0,0.001261
981.0,0.001519
982.0,0.00144
983.0,0.001373
984.0,0.001566
985.0,0.001415
986.0,0.001604
987.0,0.001542
988.0,0.001539
989.0,0.001587
990.0,0.001509
991.0,0.001572
992.0,0.001579
993.0,0.001521
994.0,0.001572
995.0,0.001569
996.0,0.001554
997.0,0.001553
998.0,0.00154
999.0,0.00153
1000.0,0.001512
1001.0,0.001528
1002.0,0.001462
1003.0,0.001491
1004.0,0.001442
1005.0,0.001391
1006.0,0.00144
1007.0,0.001465
1008.0,0.001449
1009.0,0.001432
1010.0,0.001421
1011.0,0.001436
1012.0,0.001417
1013.0,0.001424
1014.0,0.001409
1015.0,0.001395
1016.0,0.001383
1017.0,0.00138
1018.0,0.001373
1019.0,0.001331
1020.0,0.001355
1021.0,0.00135
1022.0,0.001332
1023.0,0.001342
1024.0,0.001312
1025.0,0.001333
1026.0,0.001319
1027.0,0.001314
1028.0,0.001305
1029.0,0.001284
1030.0,0.00129
1031.0,0.001281
1032.0,0.001272
1033.0,0.001249
1034.0,0.001244
1035.0,0.001244
1036.0,0.001245
1037.0,0.001221
1038.0,0.001221
1039.0,0.001216
1040.0,0.001206
1041.0,0.001206
1042.0,0.001193
1043.0,0.001184
1044.0,0.001184
1045.0,0.001163
1046.0,0.001145
1047.0,0.001151
1048.0,0.001152
1049.0,0.001144
1050.0,0.001134
1051.0,0.001127
1052.0,0.001118
1053.0,0.001104
1054.0,0.001102
1055.0,0.001098
1056.0,0.001089
1057.0,0.00108
1058.0,0.001049
1059.0,0.001046
1060.0,0.00104
1061.0,0.001034
1062.0,0.001035
1063.0,0.00102
1064.0,0.001029
1065.0,0.001016
1066.0,0.000994
1067.0,0.001003
1068.0,0.0009763
1069.0,0.0009444
1070.0,0.0009735
1071.0,0.0009882
1072.0,0.0009711
1073.0,0.0009543
1074.0,0.0009803
1075.0,0.000917
1076.0,0.0009731
1077.0,0.0009462
1078.0,0.0009208
1079.0,0.0009504
1080.0,0.000921
1081.0,0.0008831
1082.0,0.0009048
1083.0,0.0009064
1084.0,0.0008716
1085.0,0.0009093
1086.0,0.0008171
1087.0,0.0008445
1088.0,0.000889
1089.0,0.0008473
1090.0,0.0008236
1091.0,0.0008725
1092.0,0.0008695
1093.0,0.000717
1094.0,0.0007865
1095.0,0.0007403
1096.0,0.0007033
1097.0,0.0008364
1098.0,0.0006875
1099.0,0.0007136
1100.0,0.0006569
1101.0,0.0006652
1102.0,0.0006306
1103.0,0.0006195
1104.0,0.0006202
1105.0,0.0006797
1106.0,0.0005102
1107.0,0.0006405
1108.0,0.0005347
1109.0,0.0005346
1110.0,0.0006242
1111.0,0.0004175
1112.0,0.0005262
1113.0,0.0003296
1114.0,0.0003673
1115.0,0.0003033
1116.0,0.0002399
1117.0,8.632e-05
1118.0,0.0002598
1119.0,0.0001272
1120.0,0.0001595
1121.0,0.0002118
1122.0,8.773e-05
1123.0,0.0001428
1124.0,0.0001201
1125.0,0.0001564
1126.0,5.318e-05
1127.0,0.0001754
1128.0,0.0001034
1129.0,0.0001095
1130.0,7.135e-05
1131.0,0.000331
1132.0,0.0002583
1133.0,0.0001616
1134.0,4.028e-05
1135.0,1.509e-05
1136.0,0.0001329
1137.0,0.0003182
1138.0,0.0002231
1139.0,0.0003345
1140.0,0.0002775
1141.0,0.00021
1142.0,0.0002413
1143.0,0.0003427
1144.0,0.0001179
1145.0,0.0001498
1146.0,0.000161
1147.0,5.538e-05
1148.0,0.0002916
1149.0,0.0002313
1150.0,0.0001245
1151.0,0.000212
1152.0,0.0002611
1153.0,0.0002544
1154.0,0.0001408
1155.0,0.0003309
1156.0,0.0002966
1157.0,0.0003326
1158.0,0.0003279
1159.0,0.0003532
1160.0,0.0003004
1161.0,0.0003715
1162.0,0.000373
1163.0,0.000506
1164.0,0.0004319
1165.0,0.0004028
1166.0,0.0004021
1167.0,0.0004366
1168.0,0.0004397
1169.0,0.0004501
1170.0,0.000491
1171.0,0.0004749
1172.0,0.0004885
1173.0,0.0004835
1174.0,0.0003403
1175.0,0.0004726
1176.0,0.0005276
1177.0,0.0004976
1178.0,0.0003673
1179.0,0.000525
1180.0,0.0004637
1181.0,0.0004715
1182.0,0.0003196
1183.0,0.0004626
1184.0,0.000434
1185.0,0.0004141
1186.0,0.0004938
1187.0,0.0004645
1188.0,0.0003189
1189.0,0.0004312
1190.0,0.0004782
1191.0,0.0004469
1192.0,0.0004826
1193.0,0.0004623
1194.0,0.0004726
1195.0,0.0004412
1196.0,0.0004215
1197.0,0.0004688
1198.0,0.0004277
1199.0,0.0003556
1200.0,0.0004419
1201.0,0.0004215
1202.0,0.0004225
1203.0,0.0004134
1204.0,0.0003643
1205.0,0.0004322
1206.0,0.0004787
1207.0,0.0004129
1208.0,0.0004073
1209.0,0.0004149
1210.0,0.0004352
1211.0,0.0004103
1212.0,0.0003975
1213.0,0.0004492
1214.0,0.0004061
1215.0,0.0003961
1216.0,0.0004458
1217.0,0.0004307
1218.0,0.0004393
1219.0,0.0004314
1220.0,0.0004368
1221.0,0.0004419
1222.0,0.0004276
1223.0,0.0004215
1224.0,0.0004157
1225.0,0.0004313
1226.0,0.000436
1227.0,0.0003946
1228.0,0.0004383
1229.0,0.0004315
1230.0,0.0004219
1231.0,0.0004381
1232.0,0.0004341
1233.0,0.0004095
1234.0,0.0004357
1235.0,0.0004297
1236.0,0.000433
1237.0,0.000422
1238.0,0.0004289
1239.0,0.0004221
1240.0,0.0004229
1241.0,0.0004176
1242.0,0.000417
1243.0,0.0004126
1244.0,0.0004132
1245.0,0.0004143
1246.0,0.0004108
1247.0,0.000407
1248.0,0.0004044
1249.0,0.0004054
1250.0,0.0004008
1251.0,0.0003927
1252.0,0.0003938
1253.0,0.0003856
1254.0,0.0003787
1255.0,0.000389
1256.0,0.0003707
1257.0,0.0003664
1258.0,0.0003764
1259.0,0.0003544
1260.0,0.0003559
1261.0,0.0003297
1262.0,0.0003173
1263.0,0.0003169
1264.0,0.00029
1265.0,0.000313
1266.0,0.0002991
1267.0,0.0003042
1268.0,0.0002866
1269.0,0.0001777
1270.0,0.0002999
1271.0,0.0003194
1272.0,0.0003196
1273.0,0.0003148
1274.0,0.0003157
1275.0,0.0003199
1276.0,0.0003232
1277.0,0.0003261
1278.0,0.0003338
1279.0,0.0003301
1280.0,0.0003257
1281.0,0.0003116
1282.0,0.0003015
1283.0,0.0003231
1284.0,0.0003303
1285.0,0.0003318
1286.0,0.0003363
1287.0,0.0003289
1288.0,0.0003282
1289.0,0.000311
1290.0,0.0003235
1291.0,0.0003281
1292.0,0.0002989
1293.0,0.0003182
1294.0,0.0003139
1295.0,0.0003072
1296.0,0.0002903
1297.0,0.0002728
1298.0,0.0002959
1299.0,0.0003119
1300.0,0.0002556
1301.0,0.0002622
1302.0,0.0002914
1303.0,0.0002526
1304.0,0.0002105
1305.0,0.0002816
1306.0,0.0002789
1307.0,0.0002141
1308.0,0.0002473
1309.0,0.0002735
1310.0,0.0002084
1311.0,0.0002359
1312.0,0.0002273
1313.0,0.0002209
1314.0,0.0001957
1315.0,0.0001926
1316.0,0.0002275
1317.0,0.0002158
1318.0,0.0002342
1319.0,0.0001795
1320.0,0.0001728
1321.0,0.0002018
1322.0,0.000202
1323.0,0.0001512
1324.0,0.0001735
1325.0,0.0002161
1326.0,0.0001845
1327.0,0.0001751
1328.0,0.00015
1329.0,0.0001123
1330.0,0.0001457
1331.0,8.768e-05
1332.0,9.028e-05
1333.0,0.0001253
1334.0,0.0001059
1335.0,0.0001452
1336.0,0.0001145
1337.0,0.0001009
1338.0,0.0001089
1339.0,0.0001081
1340.0,0.0001049
1341.0,0.000102
1342.0,0.0001069
1343.0,7.202e-05
1344.0,4.301e-05
1345.0,6.187e-05
1346.0,3.052e-05
1347.0,3.092e-05
1348.0,1.994e-06
1349.0,7.152e-06
1350.0,7.414e-06
1351.0,1.792e-06
1352.0,4.822e-07
1353.0,2.454e-08
1354.0,8.435e-08
1355.0,6.792e-10
1356.0,1.189e-08
1357.0,1.806e-08
1358.0,7.976e-10
1359.0,1.005e-10
1360.0,3.632e-10
1361.0,4.063e-13
1362.0,1.111e-15
1363.0,4.884e-10
1364.0,2.017e-10
1365.0,3.881e-16
1366.0,2.117e-09
1367.0,8.642e-10
1368.0,2.998e-18
1369.0,7.434e-11
1370.0,3.661e-11
1371.0,2.075e-12
1372.0,4.689e-10
1373.0,9.448e-09
1374.0,4.382e-08
1375.0,7.948e-08
1376.0,7.129e-08
1377.0,3.256e-08
1378.0,3.184e-07
1379.0,1.361e-08
1380.0,1.956e-08
1381.0,5.095e-10
1382.0,4.112e-10
1383.0,6.148e-12
1384.0,8.062e-11
1385.0,3.856e-10
1386.0,3.627e-10
1387.0,4.387e-08
1388.0,8.629e-10
1389.0,1.481e-07
1390.0,1.271e-07
1391.0,8.456e-08
1392.0,5.482e-09
1393.0,2.904e-08
1394.0,1.497e-08
1395.0,1.097e-10
1396.0,5.302e-13
1397.0,1.144e-08
1398.0,3.382e-07
1399.0,2.139e-07
1400.0,2.268e-13
1401.0,9.409e-13
1402.0,5.927e-07
1403.0,7.425e-07
1404.0,2.256e-07
1405.0,5.198e-11
1406.0,5.831e-07
1407.0,5.139e-08
1408.0,4.745e-07
1409.0,1.582e-07
1410.0,1.266e-07
1411.0,6.387e-07
1412.0,8.617e-07
1413.0,8.969e-06
1414.0,9.89e-08
1415.0,4.723e-08
1416.0,1.483e-05
1417.0,4.378e-06
1418.0,4.958e-06
1419.0,7.63e-07
1420.0,3.013e-06
1421.0,3.251e-06
1422.0,1.906e-05
1423.0,3.656e-06
1424.0,6.863e-06
1425.0,1.003e-05
1426.0,1.147e-05
1427.0,2.134e-05
1428.0,1.494e-06
1429.0,1.572e-05
1430.0,2.712e-05
1431.0,2.982e-05
1432.0,1.161e-06
1433.0,1.871e-05
1434.0,9.415e-06
1435.0,9.122e-06
1436.0,1.797e-05
1437.0,1.374e-05
1438.0,5.671e-06
1439.0,2.442e-05
1440.0,1.823e-05
1441.0,1.364e-05
1442.0,1.511e-05
1443.0,1.927e-05
1444.0,2.683e-05
1445.0,2.061e-05
1446.0,9.145e-06
1447.0,1.441e-05
1448.0,5.107e-05
1449.0,4.388e-05
1450.0,1.062e-05
1451.0,4.183e-06
1452.0,2.583e-05
1453.0,3.404e-05
1454.0,5.987e-05
1455.0,2.757e-05
1456.0,3.675e-05
1457.0,5.008e-05
1458.0,5.982e-05
1459.0,7.043e-05
1460.0,3.607e-05
1461.0,3.714e-05
1462.0,5.516e-05
1463.0,1.727e-05
1464.0,6.583e-05
1465.0,3.939e-05
1466.0,2.609e-05
1467.0,1.335e-05
1468.0,3.088e-05
1469.0,3.831e-05
1470.0,1.84e-05
1471.0,6.527e-06
1472.0,1.749e-05
1473.0,2.72e-05
1474.0,4.036e-05
1475.0,7.75e-05
1476.0,2.705e-05
1477.0,2.702e-05
1478.0,2.524e-05
1479.0,4.919e-05
1480.0,2.314e-05
1481.0,4.657e-05
1482.0,2.263e-05
1483.0,6.057e-05
1484.0,5.669e-05
1485.0,5.004e-05
1486.0,4.894e-05
1487.0,2.181e-05
1488.0,3.898e-05
1489.0,7.778e-05
1490.0,7.179e-05
1491.0,8.152e-05
1492.0,6.633e-05
1493.0,7.328e-05
1494.0,8.301e-05
1495.0,7.328e-05
1496.0,6.828e-05
1497.0,9.505e-05
1498.0,7.673e-05
1499.0,8.951e-05
1500.0,0.0001045
1501.0,0.0001093
1502.0,9.202e-05
1503.0,7.696e-05
1504.0,6.101e-05
1505.0,7.379e-05
1506.0,0.0001086
1507.0,0.0001041
1508.0,9.917e-05
1509.0,7.44e-05
1510.0,0.0001122
1511.0,0.0001072
1512.0,0.0001073
1513.0,9.637e-05
1514.0,8.977e-05
1515.0,0.0001098
1516.0,0.0001044
1517.0,0.0001006
1518.0,0.0001008
1519.0,9.745e-05
1520.0,0.0001054
1521.0,0.0001153
1522.0,0.0001073
1523.0,0.0001165
1524.0,0.0001112
1525.0,0.0001047
1526.0,0.0001062
1527.0,0.0001058
1528.0,0.0001139
1529.0,0.0001073
1530.0,0.0001042
1531.0,0.0001075
1532.0,0.0001134
1533.0,0.0001136
1534.0,0.0001117
1535.0,0.0001101
1536.0,0.0001121
1537.0,0.0001098
1538.0,0.0001107
1539.0,0.0001084
1540.0,0.0001088
1541.0,0.0001091
1542.0,0.0001075
1543.0,0.0001096
1544.0,0.0001079
1545.0,0.00011
1546.0,0.0001073
1547.0,0.000106
1548.0,0.0001057
1549.0,0.0001067
1550.0,0.0001055
1551.0,0.0001058
1552.0,0.0001048
1553.0,0.0001041
1554.0,0.0001028
1555.0,0.000103
1556.0,0.0001026
1557.0,0.0001036
1558.0,0.0001028
1559.0,0.0001019
1560.0,0.0001022
1561.0,0.0001027
1562.0,0.000101
1563.0,9.988e-05
1564.0,0.0001
1565.0,0.0001003
1566.0,9.851e-05
1567.0,9.85e-05
1568.0,9.714e-05
1569.0,9.776e-05
1570.0,9.827e-05
1571.0,9.868e-05
1572.0,9.778e-05
1573.0,9.671e-05
1574.0,9.288e-05
1575.0,9.148e-05
1576.0,8.943e-05
1577.0,8.688e-05
1578.0,9.079e-05
1579.0,9.101e-05
1580.0,9.169e-05
1581.0,9.013e-05
1582.0,8.817e-05
1583.0,8.824e-05
1584.0,9.029e-05
1585.0,9.118e-05
1586.0,8.985e-05
1587.0,8.806e-05
1588.0,8.594e-05
1589.0,8.312e-05
1590.0,8.455e-05
1591.0,8.655e-05
1592.0,8.859e-05
1593.0,9e-05
1594.0,8.952e-05
1595.0,8.823e-05
1596.0,8.529e-05
1597.0,8.689e-05
1598.0,8.834e-05
1599.0,8.72e-05
1600.0,8.655e-05
1601.0,8.492e-05
1602.0,8.481e-05
1603.0,8.58e-05
1604.0,8.489e-05
1605.0,8.471e-05
1606.0,8.351e-05
1607.0,8.407e-05
1608.0,8.34e-05
1609.0,8.13e-05
1610.0,7.937e-05
1611.0,8.057e-05
1612.0,8.142e-05
1613.0,8.112e-05
1614.0,8.108e-05
1615.0,7.909e-05
1616.0,7.767e-05
1617.0,7.87e-05
1618.0,8.016e-05
1619.0,7.814e-05
1620.0,7.667e-05
1621.0,7.726e-05
1622.0,7.825e-05
1623.0,7.925e-05
1624.0,7.795e-05
1625.0,7.739e-05
1626.0,7.739e-05
1627.0,7.79e-05
1628.0,7.732e-05
1629.0,7.664e-05
1630.0,7.59e-05
1631.0,7.491e-05
1632.0,7.483e-05
1633.0,7.157e-05
1634.0,7.393e-05
1635.0,7.176e-05
1636.0,7.159e-05
1637.0,7.093e-05
1638.0,6.524e-05
1639.0,6.904e-05
1640.0,6.445e-05
1641.0,6.796e-05
1642.0,6.953e-05
1643.0,6.348e-05
1644.0,6.939e-05
1645.0,6.58e-05
1646.0,6.324e-05
1647.0,6.988e-05
1648.0,6.275e-05
1649.0,6.728e-05
1650.0,6.778e-05
1651.0,6.075e-05
1652.0,6.649e-05
1653.0,6.751e-05
1654.0,6.195e-05
1655.0,6.696e-05
1656.0,6.489e-05
1657.0,6.557e-05
1658.0,6.703e-05
1659.0,6.612e-05
1660.0,6.65e-05
1661.0,6.615e-05
1662.0,6.344e-05
1663.0,6.566e-05
1664.0,6.482e-05
1665.0,5.936e-05
1666.0,4.762e-05
1667.0,5.858e-05
1668.0,6.199e-05
1669.0,6.246e-05
1670.0,6.369e-05
1671.0,6.134e-05
1672.0,6.084e-05
1673.0,6.217e-05
1674.0,5.994e-05
1675.0,5.913e-05
1676.0,5.986e-05
1677.0,5.91e-05
1678.0,5.672e-05
1679.0,5.901e-05
1680.0,5.616e-05
1681.0,5.359e-05
1682.0,5.752e-05
1683.0,5.868e-05
1684.0,5.225e-05
1685.0,5.898e-05
1686.0,5.866e-05
1687.0,5.526e-05
1688.0,5.778e-05
1689.0,5.716e-05
1690.0,5.657e-05
1691.0,5.031e-05
1692.0,5.584e-05
1693.0,5.799e-05
1694.0,5.471e-05
1695.0,5.681e-05
1696.0,5.694e-05
1697.0,4.603e-05
1698.0,5.575e-05
1699.0,5.503e-05
1700.0,5.291e-05
1702.0,5.4e-05
1705.0,5.146e-05
1710.0,4.811e-05
1715.0,4.797e-05
1720.0,4.706e-05
1725.0,4.261e-05
1730.0,4.23e-05
1735.0,3.876e-05
1740.0,3.896e-05
1745.0,3.647e-05
1750.0,3.771e-05
1755.0,3.461e-05
1760.0,3.532e-05
1765.0,2.859e-05
1770.0,3.005e-05
1775.0,2.381e-05
1780.0,2.01e-05
1785.0,1.489e-05
1790.0,1.706e-05
1795.0,8.291e-06
1800.0,5.705e-06
1805.0,2.265e-06
1810.0,1.47e-06
1815.0,4.255e-07
1820.0,1.064e-07
1825.0,1.389e-07
1830.0,3.386e-10
1835.0,5.128e-10
1840.0,2.992e-12
1845.0,3.199e-10
1850.0,1.444e-10
1855.0,1.381e-11
1860.0,7.911e-10
1865.0,1.103e-09
1870.0,6.035e-15
1875.0,1.09e-14
1880.0,5.808e-09
1885.0,3.095e-09
1890.0,1.698e-08
1895.0,9.851e-09
1900.0,4.211e-11
1905.0,2.868e-11
1910.0,1.389e-09
1915.0,1.353e-09
1920.0,3.55e-08
1925.0,8.34e-08
1930.0,4.817e-08
1935.0,3.672e-07
1940.0,3.646e-07
1945.0,1.502e-06
1950.0,2.92e-06
1955.0,2.604e-06
1960.0,4.579e-06
1965.0,6.653e-06
1970.0,9.307e-06
1975.0,1.046e-05
1980.0,1.039e-05
1985.0,1.109e-05
1990.0,1.148e-05
1995.0,1.199e-05
2000.0,1.262e-05
2005.0,1.047e-05
2010.0,1.52e-05
2015.0,1.158e-05
2020.0,1.239e-05
2025.0,1.354e-05
2030.0,1.224e-05
2035.0,1.346e-05
2040.0,1.26e-05
2045.0,1.292e-05
2050.0,1.317e-05
2055.0,1.236e-05
2060.0,1.181e-05
2065.0,1.2e-05
2070.0,1.17e-05
2075.0,1.201e-05
2080.0,1.162e-05
2085.0,1.144e-05
2090.0,1.147e-05
2095.0,1.099e-05
2100.0,1.006e-05
2105.0,1.087e-05
2110.0,1.023e-05
2115.0,1.049e-05
2120.0,9.647e-06
2125.0,9.774e-06
2130.0,9.875e-06
2135.0,9.871e-06
2140.0,9.866e-06
2145.0,9.673e-06
2150.0,8.826e-06
2155.0,8.733e-06
2160.0,8.594e-06
2165.0,7.745e-06
2170.0,8.24e-06
2175.0,7.894e-06
2180.0,8.088e-06
2185.0,7.111e-06
2190.0,7.665e-06
2195.0,7.506e-06
2200.0,6.408e-06
2205.0,6.776e-06
2210.0,7.447e-06
2215.0,6.967e-06
2220.0,7.076e-06
2225.0,6.77e-06
2230.0,6.748e-06
2235.0,6.497e-06
2240.0,6.361e-06
2245.0,6.007e-06
2250.0,6.145e-06
2255.0,5.611e-06
2260.0,5.473e-06
2265.0,5.601e-06
2270.0,5.183e-06
2275.0,5.056e-06
2280.0,5.294e-06
2285.0,4.875e-06
2290.0,4.838e-06
2295.0,4.663e-06
2300.0,4.371e-06
2305.0,4.373e-06
2310.0,4.825e-06
2315.0,4.223e-06
2320.0,3.66e-06
2325.0,4.088e-06
2330.0,4.036e-06
2335.0,4.107e-06
2340.0,3.12e-06
2345.0,3.5e-06
2350.0,2.742e-06
2355.0,3.167e-06
2360.0,3.34e-06
2365.0,3.287e-06
2370.0,1.883e-06
2375.0,2.832e-06
2380.0,2.692e-06
2385.0,1.893e-06
2390.0,2.243e-06
2395.0,2.457e-06
2400.0,2.675e-06
2405.0,2.004e-06
2410.0,1.992e-06
2415.0,1.576e-06
2420.0,1.516e-06
2425.0,1.899e-06
2430.0,2.586e-06
2435.0,7.993e-07
2440.0,2.485e-06
2445.0,1.122e-06
2450.0,7.05e-07
2455.0,1.342e-06
2460.0,1.801e-06
2465.0,1.26e-06
2470.0,8.324e-07
2475.0,8.063e-07
2480.0,3.77e-07
2485.0,2.455e-07
2490.0,1.412e-07
2495.0,1.221e-07
2500.0,3.03e-07
2505.0,6.161e-08
2510.0,9.059e-08
2515.0,1.918e-08
2520.0,1.079e-08
2525.0,1.23e-09
2530.0,8.564e-12
2535.0,1.894e-12
2540.0,4.493e-12
2545.0,3.485e-16
2550.0,1.413e-18
2555.0,6.781e-15
2560.0,2.035e-16
2565.0,4.5560000000000007e-20
2570.0,1.357e-24
2575.0,8.582e-35
2580.0,8.948999999999999e-29
2585.0,1.871e-42
2590.0,1.167e-38
2595.0,2.271e-40
2600.0,1.8700000000000001e-35
2605.0,2.0660000000000002e-42
2610.0,7.112000000000001e-42
2615.0,0.0
2620.0,6.267e-36
2625.0,1.148e-35
2630.0,0.0
2635.0,5.976999999999999e-22
2640.0,1.2939999999999998e-22
2645.0,5.640000000000001e-25
2650.0,5.618e-26
2655.0,6.756e-35
2660.0,5.688e-32
2665.0,5.605e-45
2670.0,0.0
2675.0,2.803e-44
2680.0,1.153e-30
2685.0,1.102e-31
2690.0,4.122000000000001e-31
2695.0,1.617e-33
2700.0,4.711e-29
2705.0,1.336e-26
2710.0,1.064e-31
2715.0,1.343e-29
2720.0,0.0
2725.0,3.008e-27
2730.0,8.769e-25
2735.0,1e-26
2740.0,1.807e-32
2745.0,2.329e-27
2750.0,1.305e-26
2755.0,2.101e-28
2760.0,3.1469999999999996e-23
2765.0,1.477e-29
2770.0,7.258e-27
2775.0,8.96e-24
2780.0,4.172e-21
2785.0,1.566e-20
2790.0,3.571e-18
2795.0,7.857e-19
2800.0,2.508e-15
2805.0,4.69e-17
2810.0,1.881e-13
2815.0,5.609e-14
2820.0,6.854e-16
2825.0,6.016e-12
2830.0,1.307e-10
2835.0,1.801e-15
2840.0,3.853e-12
2845.0,1.334e-09
2850.0,2.308e-11
2855.0,9.22e-12
2860.0,4.793e-10
2865.0,3.534e-09
2870.0,8.964e-11
2875.0,8.602e-09
2880.0,5.421e-09
2885.0,8.931e-09
2890.0,3.796e-09
2895.0,6.471e-08
2900.0,1.804e-08
2905.0,2.088e-09
2910.0,6.601e-08
2915.0,2.801e-08
2920.0,6.952e-08
2925.0,2.478e-08
2930.0,1.5e-07
2935.0,1.654e-07
2940.0,3.702e-08
2945.0,3.18e-08
2950.0,1.283e-07
2955.0,5.715e-08
2960.0,1.134e-07
2965.0,1.919e-07
2970.0,7.521e-09
2975.0,1.905e-08
2980.0,2.965e-08
2985.0,1.744e-07
2990.0,2.641e-07
2995.0,1.003e-07
3000.0,1.907e-07
3005.0,6.492e-08
3010.0,1.669e-07
3015.0,1.294e-07
3020.0,1.17e-08
3025.0,1.783e-07
3030.0,1.405e-07
3035.0,5.341e-08
3040.0,4.175e-08
3045.0,8.966e-08
3050.0,2.032e-08
3055.0,4.972e-09
3060.0,1.395e-07
3065.0,5.908e-08
3070.0,3.32e-08
3075.0,1.301e-07
3080.0,7.557e-08
3085.0,3.337e-08
3090.0,4.538e-08
3095.0,1.116e-08
3100.0,9.069e-08
3105.0,1.699e-08
3110.0,1.423e-08
3115.0,4.269e-08
3120.0,2.091e-07
3125.0,6.143e-08
3130.0,1.22e-07
3135.0,2.444e-07
3140.0,6.5e-08
3145.0,6.374e-08
3150.0,1.345e-07
3155.0,1.132e-07
3160.0,1.877e-07
3165.0,2.946e-07
3170.0,2.608e-07
3175.0,1.833e-07
3180.0,2.163e-07
3185.0,1.513e-07
3190.0,7.932e-08
3195.0,4.404e-08
3200.0,6.215e-09
3205.0,4.06e-09
3210.0,1.692e-09
3215.0,6.876e-09
3220.0,2.414e-08
3225.0,2.776e-09
3230.0,4.611e-09
3235.0,1.292e-07
3240.0,5.875e-08
3245.0,1.115e-08
3250.0,4.114e-08
3255.0,1.762e-07
3260.0,1.76e-08
3265.0,3.81e-08
3270.0,1.794e-08
3275.0,1.083e-07
3280.0,4.598e-08
3285.0,1.991e-07
3290.0,1.498e-07
3295.0,1.843e-08
3300.0,2.74e-08
3305.0,6.29e-08
3310.0,5.973e-08
3315.0,8.658e-11
3320.0,5.455e-10
3325.0,5.017e-08
3330.0,7.62e-08
3335.0,1.474e-07
3340.0,5.433e-08
3345.0,5.277e-08
3350.0,1.315e-07
3355.0,5.338e-08
3360.0,8.192e-08
3365.0,1.155e-07
3370.0,5.595e-08
3375.0,1.355e-07
3380.0,7.364e-08
3385.0,1.167e-07
3390.0,1.533e-07
3395.0,1.486e-07
3400.0,2.004e-07
3405.0,6.136e-08
3410.0,1.077e-07
3415.0,1.047e-07
3420.0,2.088e-07
3425.0,1.495e-07
3430.0,1.261e-07
3435.0,1.792e-07
3440.0,1.148e-07
3445.0,1.706e-07
3450.0,1.666e-07
3455.0,1.188e-07
3460.0,1.891e-07
3465.0,1.401e-07
3470.0,1.826e-07
3475.0,1.584e-07
3480.0,1.621e-07
3485.0,1.761e-07
3490.0,1.47e-07
3495.0,1.767e-07
3500.0,1.706e-07
3505.0,1.682e-07
3510.0,1.7e-07
3515.0,1.611e-07
3520.0,1.707e-07
3525.0,1.584e-07
3530.0,1.53e-07
3535.0,1.251e-07
3540.0,1.182e-07
3545.0,1.249e-07
3550.0,1.404e-07
3555.0,1.177e-07
3560.0,1.431e-07
3565.0,1.424e-07
3570.0,1.074e-07
3575.0,1.107e-07
3580.0,1.329e-07
3585.0,1.159e-07
3590.0,1.208e-07
3595.0,1.233e-07
3600.0,1.315e-07
3605.0,1.309e-07
3610.0,1.185e-07
3615.0,1.186e-07
3620.0,1.476e-07
3625.0,1.257e-07
3630.0,1.223e-07
3635.0,1.258e-07
3640.0,1.42e-07
3645.0,1.272e-07
3650.0,1.207e-07
3655.0,1.318e-07
3660.0,1.306e-07
3665.0,1.197e-07
3670.0,9.001e-08
3675.0,5.123e-08
3680.0,9.311e-08
3685.0,1.068e-07
3690.0,1.1e-07
3695.0,1.149e-07
3700.0,1.247e-07
3705.0,1.222e-07
3710.0,1.037e-07
3715.0,1.018e-07
3720.0,1.163e-07
3725.0,1.194e-07
3730.0,1.012e-07
3735.0,9.131e-08
3740.0,9.379e-08
3745.0,1.11e-07
3750.0,9.931e-08
3755.0,9.538e-08
3760.0,9.333e-08
3765.0,8.941e-08
3770.0,9.605e-08
3775.0,9.444e-08
3780.0,1.004e-07
3785.0,9.051e-08
3790.0,7.848e-08
3795.0,9.075e-08
3800.0,1.027e-07
3805.0,9.529e-08
3810.0,8.273e-08
3815.0,7.67e-08
3820.0,9.823e-08
3825.0,9.56e-08
3830.0,9.675e-08
3835.0,7.42e-08
3840.0,8.863e-08
3845.0,8.562e-08
3850.0,8.584e-08
3855.0,8.144e-08
3860.0,7.497e-08
3865.0,7.526e-08
3870.0,6.714e-08
3875.0,6.017e-08
3880.0,5.764e-08
3885.0,5.967e-08
3890.0,6.036e-08
3895.0,6.663e-08
3900.0,7.109e-08
3905.0,7.054e-08
3910.0,6.207e-08
3915.0,6.01e-08
3920.0,5.976e-08
3925.0,5.839e-08
3930.0,6.034e-08
3935.0,6.294e-08
3940.0,6.355e-08
3945.0,6.451e-08
3950.0,6.534e-08
3955.0,6.584e-08
3960.0,6.623e-08
3965.0,6.654e-08
3970.0,6.543e-08
3975.0,6.324e-08
3980.0,6.197e-08
3985.0,6.195e-08
3990.0,6.077e-08
3995.0,5.904e-08
4000.0,5.626e-08
