interpolation:linear
wavelength,value
280.0,4.327999999999999e-22
280.5,1.415e-20
281.0,7.566e-20
281.5,4.525e-19
282.0,7.488e-19
282.5,1.855e-18
283.0,5.855e-18
283.5,9.522e-18
284.0,1.559e-16
284.5,4.536e-16
285.0,7.76e-16
285.5,3.846e-15
286.0,1.548e-14
286.5,6.942e-14
287.0,1.987e-13
287.5,7.634e-13
288.0,2.563e-12
288.5,7.797e-12
289.0,2.083e-11
289.5,6.3e-11
290.0,1.75e-10
290.5,3.57e-10
291.0,7.664e-10
291.5,2.2e-09
292.0,4.612e-09
292.5,6.48e-09
293.0,1.392e-08
293.5,3.394e-08
294.0,5.313e-08
294.5,7.215e-08
295.0,1.223e-07
295.5,2.161e-07
296.0,4.231e-07
296.5,6.019e-07
297.0,8.269e-07
297.5,2.279e-06
298.0,3.69e-06
298.5,3.798e-06
299.0,8.587e-06
299.5,1.501e-05
300.0,1.705e-05
300.5,2.562e-05
301.0,4.963e-05
301.5,8.493e-05
302.0,7.561e-05
302.5,0.0001508
303.0,0.000279
303.5,0.00036
304.0,0.0003481
304.5,0.0005624
305.0,0.0009578
305.5,0.001183
306.0,0.001178
306.5,0.00154
307.0,0.002561
307.5,0.003812
308.0,0.004095
308.5,0.005116
309.0,0.005294
309.5,0.006475
310.0,0.006702
310.5,0.01101
311.0,0.01415
311.5,0.01378
312.0,0.01457
312.5,0.01839
313.0,0.02031
313.5,0.0193
314.0,0.02523
314.5,0.02379
315.0,0.03154
315.5,0.0255
316.0,0.02341
316.5,0.03511
317.0,0.04344
317.5,0.0445
318.0,0.03574
318.5,0.04708
319.0,0.05752
319.5,0.04445
320.0,0.05316
320.5,0.07074
321.0,0.06665
321.5,0.06412
322.0,0.06397
322.5,0.05568
323.0,0.05764
323.5,0.07326
324.0,0.08582
324.5,0.08558
325.0,0.0723
325.5,0.09596
326.0,0.1177
326.5,0.1201
327.0,0.1184
327.5,0.1129
328.0,0.09771
328.5,0.1058
329.0,0.1299
329.5,0.1484
330.0,0.1482
330.5,0.1157
331.0,0.1168
331.5,0.1202
332.0,0.1327
332.5,0.1325
333.0,0.1309
333.5,0.116
334.0,0.1182
334.5,0.1388
335.0,0.1317
335.5,0.1549
336.0,0.1069
336.5,0.1229
337.0,0.09966
337.5,0.1232
338.0,0.1221
338.5,0.142
339.0,0.14
339.5,0.1344
340.0,0.1562
340.5,0.1407
341.0,0.1377
341.5,0.1258
342.0,0.1499
342.5,0.1399
343.0,0.1535
343.5,0.1443
344.0,0.1059
344.5,0.1074
345.0,0.1413
345.5,0.1438
346.0,0.1218
346.5,0.1375
347.0,0.1473
347.5,0.1188
348.0,0.135
348.5,0.1345
349.0,0.1244
349.5,0.1229
350.0,0.1516
350.5,0.1594
351.0,0.142
351.5,0.1378
352.0,0.1475
352.5,0.1147
353.0,0.1441
353.5,0.1536
354.0,0.159
354.5,0.1608
355.0,0.1598
355.5,0.144
356.0,0.1502
356.5,0.1279
357.0,0.1054
357.5,0.1286
358.0,0.1017
358.5,0.08662
359.0,0.1208
359.5,0.1535
360.0,0.1622
360.5,0.1293
361.0,0.1175
361.5,0.1349
362.0,0.1164
362.5,0.1606
363.0,0.1438
363.5,0.1321
364.0,0.1611
364.5,0.1373
365.0,0.1394
365.5,0.1745
366.0,0.1843
366.5,0.1727
367.0,0.1677
367.5,0.1735
368.0,0.1514
368.5,0.1523
369.0,0.164
369.5,0.1743
370.0,0.1852
370.5,0.1433
371.0,0.1527
371.5,0.1905
372.0,0.126
372.5,0.1507
373.0,0.1528
373.5,0.09913
374.0,0.1436
374.5,0.1186
375.0,0.1149
375.5,0.1711
376.0,0.1414
376.5,0.1461
377.0,0.1542
377.5,0.1798
378.0,0.1943
378.5,0.1831
379.0,0.1506
379.5,0.1371
380.0,0.1421
380.5,0.1716
381.0,0.1714
381.5,0.1354
382.0,0.1199
382.5,0.1019
383.0,0.09401
383.5,0.09027
384.0,0.09927
384.5,0.1456
385.0,0.1439
385.5,0.1336
386.0,0.1141
386.5,0.1494
387.0,0.1237
387.5,0.1385
388.0,0.1275
388.5,0.1256
389.0,0.1351
389.5,0.1632
390.0,0.1632
390.5,0.1497
391.0,0.1757
391.5,0.1786
392.0,0.1499
392.5,0.1338
393.0,0.07421
393.5,0.05378
394.0,0.1091
394.5,0.1383
395.0,0.1682
395.5,0.1703
396.0,0.1472
396.5,0.08575
397.0,0.06414
397.5,0.13
398.0,0.1815
398.5,0.187
399.0,0.2018
399.5,0.2005
400.0,0.2076
401.0,0.204
402.0,0.2138
403.0,0.2017
404.0,0.1973
405.0,0.196
406.0,0.1915
407.0,0.1871
408.0,0.1931
409.0,0.2053
410.0,0.1783
411.0,0.1918
412.0,0.2047
413.0,0.1983
414.0,0.1994
415.0,0.1986
416.0,0.2007
417.0,0.1944
418.0,0.1895
419.0,0.1907
420.0,0.1885
421.0,0.1958
422.0,0.1848
423.0,0.1792
424.0,0.1881
425.0,0.1864
426.0,0.1804
427.0,0.1759
428.0,0.1702
429.0,0.1602
430.0,0.1392
431.0,0.137
432.0,0.1756
433.0,0.1753
434.0,0.1616
435.0,0.1676
436.0,0.1877
437.0,0.1839
438.0,0.1663
439.0,0.1707
440.0,0.1749
441.0,0.1798
442.0,0.1914
443.0,0.1851
444.0,0.1879
445.0,0.1826
446.0,0.1732
447.0,0.186
448.0,0.1875
449.0,0.1868
450.0,0.1906
451.0,0.1962
452.0,0.1877
453.0,0.1754
454.0,0.1819
455.0,0.1816
456.0,0.1845
457.0,0.1861
458.0,0.1782
459.0,0.1758
460.0,0.1749
461.0,0.1775
462.0,0.1777
463.0,0.1754
464.0,0.1716
465.0,0.1685
466.0,0.169
467.0,0.1647
468.0,0.1652
469.0,0.1647
470.0,0.1583
471.0,0.1571
472.0,0.1644
473.0,0.1611
474.0,0.1602
475.0,0.1602
476.0,0.1541
477.0,0.1532
478.0,0.156
479.0,0.1536
480.0,0.1525
481.0,0.154
482.0,0.1536
483.0,0.1507
484.0,0.1468
485.0,0.139
486.0,0.1209
487.0,0.1259
488.0,0.1371
489.0,0.1364
490.0,0.1424
491.0,0.1388
492.0,0.1301
493.0,0.1334
494.0,0.1338
495.0,0.134
496.0,0.1337
497.0,0.1347
498.0,0.1272
499.0,0.1276
500.0,0.1227
501.0,0.1192
502.0,0.1163
503.0,0.1199
504.0,0.1157
505.0,0.119
506.0,0.1219
507.0,0.1153
508.0,0.111
509.0,0.1135
510.0,0.1123
511.0,0.1145
512.0,0.1149
513.0,0.108
514.0,0.1064
515.0,0.1045
516.0,0.1035
517.0,0.09126
518.0,0.09524
519.0,0.09914
520.0,0.1019
521.0,0.1021
522.0,0.1013
523.0,0.09871
524.0,0.1013
525.0,0.1016
526.0,0.09622
527.0,0.0898
528.0,0.09408
529.0,0.09833
530.0,0.09613
531.0,0.09676
532.0,0.09271
533.0,0.08935
534.0,0.09138
535.0,0.09279
536.0,0.09305
537.0,0.0888
538.0,0.08975
539.0,0.0884
540.0,0.08416
541.0,0.08404
542.0,0.08595
543.0,0.0844
544.0,0.08525
545.0,0.08443
546.0,0.08417
547.0,0.08353
548.0,0.08195
549.0,0.08164
550.0,0.08204
551.0,0.08047
552.0,0.08045
553.0,0.07844
554.0,0.07973
555.0,0.0793
556.0,0.07766
557.0,0.07464
558.0,0.07343
559.0,0.07143
560.0,0.0717
561.0,0.072
562.0,0.07085
563.0,0.07217
564.0,0.06966
565.0,0.06853
566.0,0.067
567.0,0.06772
568.0,0.06657
569.0,0.06441
570.0,0.06395
571.0,0.06312
572.0,0.06409
573.0,0.06434
574.0,0.06374
575.0,0.06216
576.0,0.06124
577.0,0.06158
578.0,0.06036
579.0,0.06034
580.0,0.06125
581.0,0.06129
582.0,0.06216
583.0,0.06204
584.0,0.0623
585.0,0.06046
586.0,0.05885
587.0,0.05973
588.0,0.05781
589.0,0.05066
590.0,0.05268
591.0,0.05553
592.0,0.05436
593.0,0.05486
594.0,0.05401
595.0,0.05219
596.0,0.05405
597.0,0.05302
598.0,0.05253
599.0,0.0522
600.0,0.05196
601.0,0.05124
602.0,0.05059
603.0,0.05115
604.0,0.05172
605.0,0.05121
606.0,0.05079
607.0,0.0511
608.0,0.05033
609.0,0.05022
610.0,0.04968
611.0,0.04976
612.0,0.04943
613.0,0.04861
614.0,0.04776
615.0,0.04862
616.0,0.04683
617.0,0.04655
618.0,0.04815
619.0,0.04746
620.0,0.04754
621.0,0.04735
622.0,0.04656
623.0,0.0456
624.0,0.04461
625.0,0.04432
626.0,0.04478
627.0,0.04504
628.0,0.04136
629.0,0.04338
630.0,0.04216
631.0,0.04308
632.0,0.04241
633.0,0.0436
634.0,0.04305
635.0,0.04355
636.0,0.04282
637.0,0.04336
638.0,0.04363
639.0,0.04298
640.0,0.0424
641.0,0.0422
642.0,0.04187
643.0,0.04227
644.0,0.04198
645.0,0.04184
646.0,0.04061
647.0,0.03983
648.0,0.03966
649.0,0.03871
650.0,0.03889
651.0,0.04042
652.0,0.03836
653.0,0.03953
654.0,0.03893
655.0,0.0372
656.0,0.03289
657.0,0.03365
658.0,0.03761
659.0,0.03773
660.0,0.03772
661.0,0.03782
662.0,0.0377
663.0,0.03682
664.0,0.03714
665.0,0.03704
666.0,0.03692
667.0,0.03675
668.0,0.03663
669.0,0.03705
670.0,0.03672
671.0,0.03657
672.0,0.03613
673.0,0.03656
674.0,0.03626
675.0,0.03577
676.0,0.03586
677.0,0.03537
678.0,0.03534
679.0,0.03462
680.0,0.03475
681.0,0.03436
682.0,0.03416
683.0,0.03393
684.0,0.0336
685.0,0.03373
686.0,0.03337
687.0,0.02048
688.0,0.02454
689.0,0.02454
690.0,0.02586
691.0,0.02741
692.0,0.02854
693.0,0.02815
694.0,0.02777
695.0,0.02901
696.0,0.02891
697.0,0.0309
698.0,0.03028
699.0,0.02921
700.0,0.02872
701.0,0.02825
702.0,0.0284
703.0,0.02832
704.0,0.02921
705.0,0.02911
706.0,0.029
707.0,0.0289
708.0,0.02883
709.0,0.0288
710.0,0.02862
711.0,0.0285
712.0,0.02834
713.0,0.02789
714.0,0.02785
715.0,0.02676
716.0,0.02664
717.0,0.02235
718.0,0.02027
719.0,0.01834
720.0,0.01916
721.0,0.02143
722.0,0.02495
723.0,0.02283
724.0,0.02017
725.0,0.0197
726.0,0.02063
727.0,0.0209
728.0,0.01938
729.0,0.02022
730.0,0.02135
731.0,0.02024
732.0,0.0218
733.0,0.02321
734.0,0.02371
735.0,0.02307
736.0,0.02294
737.0,0.02292
738.0,0.02331
739.0,0.02274
740.0,0.02326
741.0,0.02295
742.0,0.02288
743.0,0.02335
744.0,0.02318
745.0,0.02308
746.0,0.02307
747.0,0.02302
748.0,0.02285
749.0,0.02248
750.0,0.02237
751.0,0.02206
752.0,0.02206
753.0,0.02207
754.0,0.02202
755.0,0.0218
756.0,0.0217
757.0,0.02163
758.0,0.02126
759.0,0.02064
760.0,0.002822
761.0,0.001467
762.0,0.009231
763.0,0.004312
764.0,0.006641
765.0,0.009091
766.0,0.01153
767.0,0.01503
768.0,0.01781
769.0,0.01823
770.0,0.01892
771.0,0.01906
772.0,0.01903
773.0,0.01906
774.0,0.01887
775.0,0.01864
776.0,0.01878
777.0,0.01843
778.0,0.01822
779.0,0.01814
780.0,0.01796
781.0,0.0179
782.0,0.01794
783.0,0.01755
784.0,0.01756
785.0,0.01736
786.0,0.01747
787.0,0.01703
788.0,0.01672
789.0,0.01662
790.0,0.01602
791.0,0.01617
792.0,0.01599
793.0,0.01565
794.0,0.01594
795.0,0.01611
796.0,0.01542
797.0,0.01538
798.0,0.01587
799.0,0.01567
800.0,0.0153
801.0,0.01515
802.0,0.01504
803.0,0.01484
804.0,0.01481
805.0,0.01472
806.0,0.01512
807.0,0.01485
808.0,0.0148
809.0,0.01441
810.0,0.01419
811.0,0.0141
812.0,0.01354
813.0,0.01315
814.0,0.01125
815.0,0.01113
816.0,0.01021
817.0,0.01038
818.0,0.009911
819.0,0.01126
820.0,0.01047
821.0,0.01254
822.0,0.01207
823.0,0.00766
824.0,0.01152
825.0,0.01209
826.0,0.01148
827.0,0.01219
828.0,0.009985
829.0,0.01128
830.0,0.01106
831.0,0.01107
832.0,0.01062
833.0,0.01144
834.0,0.01089
835.0,0.01212
836.0,0.01142
837.0,0.01205
838.0,0.01157
839.0,0.01177
840.0,0.01199
841.0,0.01175
842.0,0.01175
843.0,0.01173
844.0,0.0115
845.0,0.01186
846.0,0.01176
847.0,0.0115
848.0,0.01136
849.0,0.01098
850.0,0.01047
851.0,0.01102
852.0,0.01089
853.0,0.01045
854.0,0.008968
855.0,0.00983
856.0,0.01069
857.0,0.0109
858.0,0.01078
859.0,0.01075
860.0,0.01072
861.0,0.01062
862.0,0.01075
863.0,0.01097
864.0,0.01038
865.0,0.01025
866.0,0.009177
867.0,0.009538
868.0,0.01034
869.0,0.01008
870.0,0.01033
871.0,0.01014
872.0,0.01007
873.0,0.01001
874.0,0.009843
875.0,0.009599
876.0,0.009656
877.0,0.009714
878.0,0.009774
879.0,0.009584
880.0,0.009339
881.0,0.009153
882.0,0.009311
883.0,0.009309
884.0,0.009222
885.0,0.009249
886.0,0.00875
887.0,0.008829
888.0,0.008907
889.0,0.008995
890.0,0.00885
891.0,0.008815
892.0,0.008492
893.0,0.008143
894.0,0.007737
895.0,0.007175
896.0,0.00665
897.0,0.00554
898.0,0.006108
899.0,0.004427
900.0,0.006277
901.0,0.004658
902.0,0.00562
903.0,0.005608
904.0,0.007365
905.0,0.007033
906.0,0.006504
907.0,0.005041
908.0,0.005159
909.0,0.005669
910.0,0.004844
911.0,0.005231
912.0,0.005483
913.0,0.004854
914.0,0.004806
915.0,0.00524
916.0,0.00432
917.0,0.005693
918.0,0.004408
919.0,0.005778
920.0,0.005875
921.0,0.00614
922.0,0.005342
923.0,0.005888
924.0,0.005433
925.0,0.00528
926.0,0.005327
927.0,0.006053
928.0,0.004128
929.0,0.00369
930.0,0.002774
931.0,0.002607
932.0,0.001783
933.0,0.001408
934.0,0.0007219
935.0,0.001444
936.0,0.0008572
937.0,0.0008643
938.0,0.001075
939.0,0.002439
940.0,0.003008
941.0,0.002169
942.0,0.00255
943.0,0.001584
944.0,0.001695
945.0,0.002207
946.0,0.001034
947.0,0.002189
948.0,0.001559
949.0,0.00303
950.0,0.0007236
951.0,0.002966
952.0,0.001459
953.0,0.001944
954.0,0.002463
955.0,0.001965
956.0,0.001918
957.0,0.001432
958.0,0.002835
959.0,0.002146
960.0,0.002425
961.0,0.002779
962.0,0.002603
963.0,0.003072
964.0,0.002765
965.0,0.003037
966.0,0.003022
967.0,0.002988
968.0,0.004287
969.0,0.004467
970.0,0.004025
971.0,0.004747
972.0,0.004477
973.0,0.003749
974.0,0.003519
975.0,0.003673
976.0,0.003418
977.0,0.004017
978.0,0.003744
979.0,0.003953
980.0,0.003658
981.0,0.004542
982.0,0.004274
983.0,0.004055
984.0,0.004686
985.0,0.004211
986.0,0.004767
987.0,0.004619
988.0,0.004592
989.0,0.004718
990.0,0.00453
991.0,0.004684
992.0,0.004698
993.0,0.004542
994.0,0.004668
995.0,0.004651
996.0,0.004607
997.0,0.004599
998.0,0.004559
999.0,0.004528
1000.0,0.004471
1001.0,0.004519
1002.0,0.004342
1003.0,0.004403
1004.0,0.004269
1005.0,0.00411
1006.0,0.004247
1007.0,0.004323
1008.0,0.004277
1009.0,0.004232
1010.0,0.004194
1011.0,0.004238
1012.0,0.004178
1013.0,0.004198
1014.0,0.004154
1015.0,0.00411
1016.0,0.004074
1017.0,0.004067
1018.0,0.004041
1019.0,0.003926
1020.0,0.003986
1021.0,0.003967
1022.0,0.003916
1023.0,0.003943
1024.0,0.003864
1025.0,0.003916
1026.0,0.003881
1027.0,0.003857
1028.0,0.003834
1029.0,0.003774
1030.0,0.00379
1031.0,0.003759
1032.0,0.003735
1033.0,0.003664
1034.0,0.00365
1035.0,0.003648
1036.0,0.003651
1037.0,0.003579
1038.0,0.003581
1039.0,0.003566
1040.0,0.003538
1041.0,0.003537
1042.0,0.003499
1043.0,0.003475
1044.0,0.003474
1045.0,0.003413
1046.0,0.003361
1047.0,0.003378
1048.0,0.003384
1049.0,0.003359
1050.0,0.00333
1051.0,0.003312
1052.0,0.003285
1053.0,0.003246
1054.0,0.00324
1055.0,0.003228
1056.0,0.003203
1057.0,0.00318
1058.0,0.003089
1059.0,0.00308
1060.0,0.003063
1061.0,0.003047
1062.0,0.00305
1063.0,0.003008
1064.0,0.003033
1065.0,0.002996
1066.0,0.002929
1067.0,0.002955
1068.0,0.002877
1069.0,0.00278
1070.0,0.00286
1071.0,0.002904
1072.0,0.002852
1073.0,0.002803
1074.0,0.002877
1075.0,0.002694
1076.0,0.002852
1077.0,0.002773
1078.0,0.002705
1079.0,0.00278
1080.0,0.002698
1081.0,0.002592
1082.0,0.002649
1083.0,0.002653
1084.0,0.002548
1085.0,0.002661
1086.0,0.00237
1087.0,0.002476
1088.0,0.002596
1089.0,0.002481
1090.0,0.002397
1091.0,0.002552
1092.0,0.002542
1093.0,0.002067
1094.0,0.0023
1095.0,0.002153
1096.0,0.002031
1097.0,0.002442
1098.0,0.001979
1099.0,0.002068
1100.0,0.00188
1101.0,0.001908
1102.0,0.001798
1103.0,0.001761
1104.0,0.001759
1105.0,0.00197
1106.0,0.001398
1107.0,0.001835
1108.0,0.001486
1109.0,0.001489
1110.0,0.001791
1111.0,0.001117
1112.0,0.001465
1113.0,0.0008505
1114.0,0.0009585
1115.0,0.0007763
1116.0,0.0005907
1117.0,0.0001939
1118.0,0.0006467
1119.0,0.0002952
1120.0,0.0003736
1121.0,0.0005082
1122.0,0.0001967
1123.0,0.0003325
1124.0,0.0002773
1125.0,0.0003684
1126.0,0.0001163
1127.0,0.0004159
1128.0,0.0002336
1129.0,0.0002486
1130.0,0.0001586
1131.0,0.0008452
1132.0,0.0006411
1133.0,0.0003792
1134.0,8.738e-05
1135.0,3.232e-05
1136.0,0.0003058
1137.0,0.0008062
1138.0,0.0005476
1139.0,0.0008778
1140.0,0.0007052
1141.0,0.0005135
1142.0,0.0006008
1143.0,0.0008927
1144.0,0.0002745
1145.0,0.0003502
1146.0,0.0003777
1147.0,0.000121
1148.0,0.0007471
1149.0,0.0005738
1150.0,0.0002921
1151.0,0.0005191
1152.0,0.0006587
1153.0,0.0006466
1154.0,0.0003284
1155.0,0.0008707
1156.0,0.0007662
1157.0,0.0008807
1158.0,0.0008669
1159.0,0.0009504
1160.0,0.0007882
1161.0,0.001013
1162.0,0.00101
1163.0,0.001453
1164.0,0.001204
1165.0,0.001109
1166.0,0.001109
1167.0,0.001222
1168.0,0.00123
1169.0,0.001267
1170.0,0.001396
1171.0,0.00135
1172.0,0.001381
1173.0,0.001378
1174.0,0.0009158
1175.0,0.001345
1176.0,0.001506
1177.0,0.001421
1178.0,0.001006
1179.0,0.001504
1180.0,0.001299
1181.0,0.001344
1182.0,0.0008623
1183.0,0.001322
1184.0,0.001212
1185.0,0.001152
1186.0,0.001416
1187.0,0.001328
1188.0,0.0008613
1189.0,0.001222
1190.0,0.001364
1191.0,0.001267
1192.0,0.001378
1193.0,0.001304
1194.0,0.001349
1195.0,0.001255
1196.0,0.001194
1197.0,0.001349
1198.0,0.001212
1199.0,0.0009898
1200.0,0.001262
1201.0,0.0012
1202.0,0.001195
1203.0,0.001184
1204.0,0.001003
1205.0,0.001223
1206.0,0.001376
1207.0,0.001173
1208.0,0.001163
1209.0,0.001184
1210.0,0.001241
1211.0,0.001163
1212.0,0.001132
1213.0,0.001295
1214.0,0.001159
1215.0,0.00113
1216.0,0.001279
1217.0,0.001233
1218.0,0.00126
1219.0,0.001236
1220.0,0.001253
1221.0,0.001266
1222.0,0.001224
1223.0,0.001206
1224.0,0.001189
1225.0,0.001242
1226.0,0.001251
1227.0,0.00113
1228.0,0.001252
1229.0,0.001239
1230.0,0.00121
1231.0,0.001252
1232.0,0.00124
1233.0,0.001179
1234.0,0.001242
1235.0,0.001228
1236.0,0.001235
1237.0,0.001208
1238.0,0.001223
1239.0,0.001203
1240.0,0.001204
1241.0,0.001191
1242.0,0.001188
1243.0,0.001174
1244.0,0.001178
1245.0,0.001179
1246.0,0.001169
1247.0,0.00116
1248.0,0.001153
1249.0,0.001155
1250.0,0.001143
1251.0,0.001123
1252.0,0.001122
1253.0,0.001105
1254.0,0.001086
1255.0,0.001109
1256.0,0.001066
1257.0,0.001055
1258.0,0.001078
1259.0,0.001022
1260.0,0.001026
1261.0,0.0009497
1262.0,0.0009104
1263.0,0.0009091
1264.0,0.0008191
1265.0,0.0008984
1266.0,0.0008514
1267.0,0.0008709
1268.0,0.000812
1269.0,0.0004464
1270.0,0.0008577
1271.0,0.0009221
1272.0,0.000924
1273.0,0.0009095
1274.0,0.0009118
1275.0,0.0009251
1276.0,0.0009342
1277.0,0.0009407
1278.0,0.0009623
1279.0,0.0009501
1280.0,0.0009354
1281.0,0.0008928
1282.0,0.0008625
1283.0,0.000925
1284.0,0.0009431
1285.0,0.0009471
1286.0,0.0009597
1287.0,0.0009368
1288.0,0.000935
1289.0,0.0008929
1290.0,0.0009214
1291.0,0.000933
1292.0,0.0008558
1293.0,0.0009044
1294.0,0.0008942
1295.0,0.0008829
1296.0,0.0008291
1297.0,0.0007727
1298.0,0.0008468
1299.0,0.0008903
1300.0,0.0007199
1301.0,0.0007459
1302.0,0.0008347
1303.0,0.0007057
1304.0,0.0005761
1305.0,0.0008067
1306.0,0.0008032
1307.0,0.0005886
1308.0,0.0006978
1309.0,0.0007872
1310.0,0.0005701
1311.0,0.0006569
1312.0,0.0006354
1313.0,0.0006161
1314.0,0.0005372
1315.0,0.0005275
1316.0,0.0006343
1317.0,0.0005926
1318.0,0.0006548
1319.0,0.0004811
1320.0,0.0004653
1321.0,0.0005556
1322.0,0.0005576
1323.0,0.000395
1324.0,0.0004642
1325.0,0.0006056
1326.0,0.000502
1327.0,0.0004728
1328.0,0.0003965
1329.0,0.0002816
1330.0,0.0003784
1331.0,0.0002105
1332.0,0.0002193
1333.0,0.0003143
1334.0,0.0002657
1335.0,0.0003791
1336.0,0.0002874
1337.0,0.0002493
1338.0,0.0002706
1339.0,0.0002698
1340.0,0.0002627
1341.0,0.0002504
1342.0,0.000264
1343.0,0.0001662
1344.0,9.694e-05
1345.0,0.000142
1346.0,6.576e-05
1347.0,6.634e-05
1348.0,4.065e-06
1349.0,1.471e-05
1350.0,1.529e-05
1351.0,3.645e-06
1352.0,9.772e-07
1353.0,4.97e-08
1354.0,1.708e-07
1355.0,1.375e-09
1356.0,2.407e-08
1357.0,3.657e-08
1358.0,1.614e-09
1359.0,2.034e-10
1360.0,7.35e-10
1361.0,8.222e-13
1362.0,2.249e-15
1363.0,9.883e-10
1364.0,4.08e-10
1365.0,7.852e-16
1366.0,4.283e-09
1367.0,1.748e-09
1368.0,6.063e-18
1369.0,1.503e-10
1370.0,7.404e-11
1371.0,4.197e-12
1372.0,9.481e-10
1373.0,1.91e-08
1374.0,8.859e-08
1375.0,1.607e-07
1376.0,1.441e-07
1377.0,6.583e-08
1378.0,6.439e-07
1379.0,2.75e-08
1380.0,3.952e-08
1381.0,1.029e-09
1382.0,8.309e-10
1383.0,1.242e-11
1384.0,1.629e-10
1385.0,7.788e-10
1386.0,7.325e-10
1387.0,8.86e-08
1388.0,1.743e-09
1389.0,2.992e-07
1390.0,2.568e-07
1391.0,1.708e-07
1392.0,1.107e-08
1393.0,5.864e-08
1394.0,3.022e-08
1395.0,2.214e-10
1396.0,1.07e-12
1397.0,2.308e-08
1398.0,6.828e-07
1399.0,4.319e-07
1400.0,4.576e-13
1401.0,1.898e-12
1402.0,1.198e-06
1403.0,1.501e-06
1404.0,4.555e-07
1405.0,1.048e-10
1406.0,1.177e-06
1407.0,1.037e-07
1408.0,9.579e-07
1409.0,3.191e-07
1410.0,2.555e-07
1411.0,1.29e-06
1412.0,1.742e-06
1413.0,1.841e-05
1414.0,1.995e-07
1415.0,9.523e-08
1416.0,3.107e-05
1417.0,8.951e-06
1418.0,1.011e-05
1419.0,1.544e-06
1420.0,6.129e-06
1421.0,6.626e-06
1422.0,4.015e-05
1423.0,7.502e-06
1424.0,1.421e-05
1425.0,2.079e-05
1426.0,2.402e-05
1427.0,4.578e-05
1428.0,3.025e-06
1429.0,3.317e-05
1430.0,5.898e-05
1431.0,6.532e-05
1432.0,2.349e-06
1433.0,4.004e-05
1434.0,1.972e-05
1435.0,1.885e-05
1436.0,3.803e-05
1437.0,2.892e-05
1438.0,1.168e-05
1439.0,5.234e-05
1440.0,3.886e-05
1441.0,2.856e-05
1442.0,3.166e-05
1443.0,4.107e-05
1444.0,5.826e-05
1445.0,4.381e-05
1446.0,1.899e-05
1447.0,3.029e-05
1448.0,0.0001169
1449.0,9.891e-05
1450.0,2.223e-05
1451.0,8.596e-06
1452.0,5.608e-05
1453.0,7.506e-05
1454.0,0.0001405
1455.0,6.062e-05
1456.0,8.154e-05
1457.0,0.0001149
1458.0,0.0001415
1459.0,0.0001686
1460.0,8.139e-05
1461.0,8.286e-05
1462.0,0.0001283
1463.0,3.714e-05
1464.0,0.0001575
1465.0,9.041e-05
1466.0,5.672e-05
1467.0,2.811e-05
1468.0,6.808e-05
1469.0,8.619e-05
1470.0,3.905e-05
1471.0,1.354e-05
1472.0,3.705e-05
1473.0,5.951e-05
1474.0,9.216e-05
1475.0,0.0001905
1476.0,5.965e-05
1477.0,5.925e-05
1478.0,5.596e-05
1479.0,0.0001147
1480.0,5.043e-05
1481.0,0.0001077
1482.0,4.979e-05
1483.0,0.0001447
1484.0,0.0001358
1485.0,0.0001179
1486.0,0.0001142
1487.0,4.759e-05
1488.0,9.025e-05
1489.0,0.0001947
1490.0,0.000179
1491.0,0.000208
1492.0,0.0001618
1493.0,0.0001822
1494.0,0.0002117
1495.0,0.0001842
1496.0,0.0001702
1497.0,0.0002504
1498.0,0.0001948
1499.0,0.0002331
1500.0,0.0002771
1501.0,0.0002921
1502.0,0.0002414
1503.0,0.0001973
1504.0,0.0001519
1505.0,0.0001889
1506.0,0.0002911
1507.0,0.0002766
1508.0,0.0002619
1509.0,0.0001884
1510.0,0.0003009
1511.0,0.0002874
1512.0,0.0002859
1513.0,0.0002553
1514.0,0.0002348
1515.0,0.0002928
1516.0,0.0002775
1517.0,0.0002681
1518.0,0.0002671
1519.0,0.0002588
1520.0,0.0002824
1521.0,0.0003066
1522.0,0.0002869
1523.0,0.00031
1524.0,0.0002978
1525.0,0.0002807
1526.0,0.0002851
1527.0,0.000282
1528.0,0.0003043
1529.0,0.0002865
1530.0,0.0002798
1531.0,0.0002875
1532.0,0.0003013
1533.0,0.0003011
1534.0,0.0002946
1535.0,0.0002915
1536.0,0.0002972
1537.0,0.0002893
1538.0,0.0002928
1539.0,0.0002866
1540.0,0.0002875
1541.0,0.0002886
1542.0,0.0002842
1543.0,0.0002892
1544.0,0.0002844
1545.0,0.0002902
1546.0,0.0002844
1547.0,0.0002802
1548.0,0.0002795
1549.0,0.0002816
1550.0,0.0002789
1551.0,0.0002801
1552.0,0.0002768
1553.0,0.000275
1554.0,0.0002718
1555.0,0.000272
1556.0,0.0002711
1557.0,0.0002737
1558.0,0.0002716
1559.0,0.0002692
1560.0,0.0002704
1561.0,0.0002717
1562.0,0.0002674
1563.0,0.0002647
1564.0,0.0002653
1565.0,0.0002653
1566.0,0.0002611
1567.0,0.0002611
1568.0,0.0002577
1569.0,0.0002589
1570.0,0.0002607
1571.0,0.0002621
1572.0,0.0002599
1573.0,0.0002575
1574.0,0.0002476
1575.0,0.000244
1576.0,0.0002394
1577.0,0.0002327
1578.0,0.0002436
1579.0,0.0002449
1580.0,0.0002466
1581.0,0.0002424
1582.0,0.0002371
1583.0,0.0002375
1584.0,0.0002418
1585.0,0.000244
1586.0,0.0002405
1587.0,0.000236
1588.0,0.0002293
1589.0,0.0002217
1590.0,0.000226
1591.0,0.0002311
1592.0,0.0002371
1593.0,0.0002406
1594.0,0.0002393
1595.0,0.0002358
1596.0,0.0002283
1597.0,0.0002333
1598.0,0.0002363
1599.0,0.0002332
1600.0,0.0002312
1601.0,0.0002273
1602.0,0.0002272
1603.0,0.0002292
1604.0,0.0002269
1605.0,0.0002262
1606.0,0.0002231
1607.0,0.0002245
1608.0,0.0002236
1609.0,0.0002173
1610.0,0.0002123
1611.0,0.0002155
1612.0,0.0002176
1613.0,0.0002172
1614.0,0.0002168
1615.0,0.0002115
1616.0,0.0002077
1617.0,0.0002112
1618.0,0.0002145
1619.0,0.0002097
1620.0,0.000205
1621.0,0.0002068
1622.0,0.0002095
1623.0,0.0002121
1624.0,0.000209
1625.0,0.0002077
1626.0,0.0002076
1627.0,0.0002087
1628.0,0.0002075
1629.0,0.0002053
1630.0,0.0002035
1631.0,0.0002016
1632.0,0.0002008
1633.0,0.0001936
1634.0,0.0001983
1635.0,0.0001942
1636.0,0.0001927
1637.0,0.0001904
1638.0,0.0001774
1639.0,0.0001853
1640.0,0.0001751
1641.0,0.0001829
1642.0,0.0001864
1643.0,0.0001732
1644.0,0.0001856
1645.0,0.0001785
1646.0,0.0001725
1647.0,0.0001871
1648.0,0.0001712
1649.0,0.0001812
1650.0,0.0001823
1651.0,0.0001659
1652.0,0.0001791
1653.0,0.0001807
1654.0,0.0001687
1655.0,0.0001798
1656.0,0.0001756
1657.0,0.0001769
1658.0,0.0001794
1659.0,0.0001774
1660.0,0.0001785
1661.0,0.000177
1662.0,0.0001709
1663.0,0.0001755
1664.0,0.0001733
1665.0,0.0001614
1666.0,0.0001261
1667.0,0.000159
1668.0,0.0001663
1669.0,0.0001668
1670.0,0.0001698
1671.0,0.0001641
1672.0,0.000162
1673.0,0.0001656
1674.0,0.0001609
1675.0,0.0001581
1676.0,0.0001591
1677.0,0.0001581
1678.0,0.0001525
1679.0,0.0001567
1680.0,0.0001497
1681.0,0.0001441
1682.0,0.0001528
1683.0,0.0001556
1684.0,0.0001408
1685.0,0.0001566
1686.0,0.0001558
1687.0,0.0001483
1688.0,0.0001539
1689.0,0.0001519
1690.0,0.0001507
1691.0,0.0001342
1692.0,0.000149
1693.0,0.0001538
1694.0,0.0001464
1695.0,0.0001512
1696.0,0.0001509
1697.0,0.000122
1698.0,0.0001485
1699.0,0.0001461
1700.0,0.0001412
1702.0,0.0001438
1705.0,0.0001375
1710.0,0.0001281
1715.0,0.000127
1720.0,0.0001244
1725.0,0.0001134
1730.0,0.000111
1735.0,0.0001023
1740.0,0.0001025
1745.0,9.43e-05
1750.0,0.0001007
1755.0,9.042e-05
1760.0,9.418e-05
1765.0,7.377e-05
1770.0,7.861e-05
1775.0,6.012e-05
1780.0,4.975e-05
1785.0,3.542e-05
1790.0,4.137e-05
1795.0,1.823e-05
1800.0,1.247e-05
1805.0,4.644e-06
1810.0,3.01e-06
1815.0,8.502e-07
1820.0,2.117e-07
1825.0,2.764e-07
1830.0,6.723e-10
1835.0,1.018e-09
1840.0,5.94e-12
1845.0,6.35e-10
1850.0,2.867e-10
1855.0,2.74e-11
1860.0,1.57e-09
1865.0,2.188e-09
1870.0,1.197e-14
1875.0,2.163e-14
1880.0,1.152e-08
1885.0,6.139e-09
1890.0,3.368e-08
1895.0,1.954e-08
1900.0,8.35e-11
1905.0,5.687e-11
1910.0,2.755e-09
1915.0,2.683e-09
1920.0,7.041e-08
1925.0,1.656e-07
1930.0,9.56e-08
1935.0,7.334e-07
1940.0,7.314e-07
1945.0,3.082e-06
1950.0,6.179e-06
1955.0,5.432e-06
1960.0,1.002e-05
1965.0,1.516e-05
1970.0,2.215e-05
1975.0,2.536e-05
1980.0,2.55e-05
1985.0,2.761e-05
1990.0,2.842e-05
1995.0,3.014e-05
2000.0,3.177e-05
2005.0,2.585e-05
2010.0,3.889e-05
2015.0,2.91e-05
2020.0,3.128e-05
2025.0,3.432e-05
2030.0,3.078e-05
2035.0,3.387e-05
2040.0,3.164e-05
2045.0,3.25e-05
2050.0,3.288e-05
2055.0,3.101e-05
2060.0,2.96e-05
2065.0,2.998e-05
2070.0,2.928e-05
2075.0,2.985e-05
2080.0,2.878e-05
2085.0,2.835e-05
2090.0,2.847e-05
2095.0,2.73e-05
2100.0,2.496e-05
2105.0,2.708e-05
2110.0,2.558e-05
2115.0,2.613e-05
2120.0,2.413e-05
2125.0,2.436e-05
2130.0,2.454e-05
2135.0,2.455e-05
2140.0,2.456e-05
2145.0,2.408e-05
2150.0,2.213e-05
2155.0,2.195e-05
2160.0,2.156e-05
2165.0,1.939e-05
2170.0,2.06e-05
2175.0,1.979e-05
2180.0,2.028e-05
2185.0,1.771e-05
2190.0,1.917e-05
2195.0,1.88e-05
2200.0,1.605e-05
2205.0,1.699e-05
2210.0,1.856e-05
2215.0,1.743e-05
2220.0,1.773e-05
2225.0,1.697e-05
2230.0,1.692e-05
2235.0,1.629e-05
2240.0,1.594e-05
2245.0,1.505e-05
2250.0,1.531e-05
2255.0,1.395e-05
2260.0,1.355e-05
2265.0,1.386e-05
2270.0,1.276e-05
2275.0,1.243e-05
2280.0,1.307e-05
2285.0,1.198e-05
2290.0,1.189e-05
2295.0,1.145e-05
2300.0,1.065e-05
2305.0,1.066e-05
2310.0,1.187e-05
2315.0,1.03e-05
2320.0,8.763e-06
2325.0,9.974e-06
2330.0,9.853e-06
2335.0,1.008e-05
2340.0,7.379e-06
2345.0,8.43e-06
2350.0,6.416e-06
2355.0,7.571e-06
2360.0,8.068e-06
2365.0,7.928e-06
2370.0,4.216e-06
2375.0,6.721e-06
2380.0,6.365e-06
2385.0,4.31e-06
2390.0,5.217e-06
2395.0,5.78e-06
2400.0,6.368e-06
2405.0,4.62e-06
2410.0,4.587e-06
2415.0,3.536e-06
2420.0,3.402e-06
2425.0,4.342e-06
2430.0,6.125e-06
2435.0,1.706e-06
2440.0,5.862e-06
2445.0,2.441e-06
2450.0,1.489e-06
2455.0,2.967e-06
2460.0,4.066e-06
2465.0,2.747e-06
2470.0,1.757e-06
2475.0,1.698e-06
2480.0,7.724e-07
2485.0,4.95e-07
2490.0,2.819e-07
2495.0,2.437e-07
2500.0,6.136e-07
2505.0,1.228e-07
2510.0,1.811e-07
2515.0,3.801e-08
2520.0,2.13e-08
2525.0,2.429e-09
2530.0,1.69e-11
2535.0,3.737e-12
2540.0,8.865e-12
2545.0,6.875e-16
2550.0,2.788e-18
2555.0,1.338e-14
2560.0,4.016e-16
2565.0,8.990000000000001e-20
2570.0,2.677e-24
2575.0,1.693e-34
2580.0,1.766e-28
2585.0,3.69e-42
2590.0,2.303e-38
2595.0,4.48e-40
2600.0,3.688e-35
2605.0,4.076e-42
2610.0,1.4029999999999998e-41
2615.0,1.4009999999999999e-45
2620.0,1.236e-35
2625.0,2.2640000000000002e-35
2630.0,0.0
2635.0,1.179e-21
2640.0,2.552e-22
2645.0,1.112e-24
2650.0,1.108e-25
2655.0,1.3330000000000001e-34
2660.0,1.1220000000000001e-31
2665.0,1.121e-44
2670.0,0.0
2675.0,5.464999999999999e-44
2680.0,2.2750000000000002e-30
2685.0,2.1730000000000003e-31
2690.0,8.131e-31
2695.0,3.19e-33
2700.0,9.290999999999999e-29
2705.0,2.635e-26
2710.0,2.098e-31
2715.0,2.6489999999999996e-29
2720.0,0.0
2725.0,5.9319999999999996e-27
2730.0,1.729e-24
2735.0,1.9720000000000002e-26
2740.0,3.563e-32
2745.0,4.593e-27
2750.0,2.5740000000000003e-26
2755.0,4.142e-28
2760.0,6.206e-23
2765.0,2.912e-29
2770.0,1.431e-26
2775.0,1.7669999999999998e-23
2780.0,8.226e-21
2785.0,3.0880000000000004e-20
2790.0,7.043e-18
2795.0,1.549e-18
2800.0,4.945e-15
2805.0,9.246e-17
2810.0,3.708e-13
2815.0,1.106e-13
2820.0,1.351e-15
2825.0,1.186e-11
2830.0,2.578e-10
2835.0,3.55e-15
2840.0,7.597e-12
2845.0,2.63e-09
2850.0,4.551e-11
2855.0,1.818e-11
2860.0,9.45e-10
2865.0,6.968e-09
2870.0,1.767e-10
2875.0,1.696e-08
2880.0,1.069e-08
2885.0,1.761e-08
2890.0,7.485e-09
2895.0,1.278e-07
2900.0,3.557e-08
2905.0,4.116e-09
2910.0,1.303e-07
2915.0,5.526e-08
2920.0,1.372e-07
2925.0,4.889e-08
2930.0,2.966e-07
2935.0,3.272e-07
2940.0,7.307e-08
2945.0,6.273e-08
2950.0,2.537e-07
2955.0,1.129e-07
2960.0,2.242e-07
2965.0,3.802e-07
2970.0,1.483e-08
2975.0,3.759e-08
2980.0,5.85e-08
2985.0,3.455e-07
2990.0,5.248e-07
2995.0,1.984e-07
3000.0,3.781e-07
3005.0,1.283e-07
3010.0,3.31e-07
3015.0,2.562e-07
3020.0,2.307e-08
3025.0,3.538e-07
3030.0,2.784e-07
3035.0,1.055e-07
3040.0,8.247e-08
3045.0,1.774e-07
3050.0,4.011e-08
3055.0,9.804e-09
3060.0,2.769e-07
3065.0,1.168e-07
3070.0,6.556e-08
3075.0,2.581e-07
3080.0,1.497e-07
3085.0,6.591e-08
3090.0,8.968e-08
3095.0,2.202e-08
3100.0,1.799e-07
3105.0,3.356e-08
3110.0,2.806e-08
3115.0,8.439e-08
3120.0,4.178e-07
3125.0,1.218e-07
3130.0,2.43e-07
3135.0,4.901e-07
3140.0,1.289e-07
3145.0,1.264e-07
3150.0,2.683e-07
3155.0,2.257e-07
3160.0,3.762e-07
3165.0,5.961e-07
3170.0,5.274e-07
3175.0,3.68e-07
3180.0,4.362e-07
3185.0,3.026e-07
3190.0,1.58e-07
3195.0,8.719e-08
3200.0,1.226e-08
3205.0,8.004e-09
3210.0,3.335e-09
3215.0,1.357e-08
3220.0,4.772e-08
3225.0,5.475e-09
3230.0,9.094e-09
3235.0,2.592e-07
3240.0,1.167e-07
3245.0,2.204e-08
3250.0,8.168e-08
3255.0,3.563e-07
3260.0,3.48e-08
3265.0,7.561e-08
3270.0,3.546e-08
3275.0,2.168e-07
3280.0,9.141e-08
3285.0,4.058e-07
3290.0,3.027e-07
3295.0,3.653e-08
3300.0,5.436e-08
3305.0,1.256e-07
3310.0,1.19e-07
3315.0,1.706e-10
3320.0,1.075e-09
3325.0,9.977e-08
3330.0,1.532e-07
3335.0,2.991e-07
3340.0,1.087e-07
3345.0,1.053e-07
3350.0,2.663e-07
3355.0,1.064e-07
3360.0,1.643e-07
3365.0,2.33e-07
3370.0,1.114e-07
3375.0,2.738e-07
3380.0,1.469e-07
3385.0,2.348e-07
3390.0,3.092e-07
3395.0,2.999e-07
3400.0,4.074e-07
3405.0,1.22e-07
3410.0,2.163e-07
3415.0,2.095e-07
3420.0,4.239e-07
3425.0,3.011e-07
3430.0,2.531e-07
3435.0,3.636e-07
3440.0,2.303e-07
3445.0,3.461e-07
3450.0,3.378e-07
3455.0,2.393e-07
3460.0,3.856e-07
3465.0,2.833e-07
3470.0,3.73e-07
3475.0,3.223e-07
3480.0,3.303e-07
3485.0,3.601e-07
3490.0,2.99e-07
3495.0,3.62e-07
3500.0,3.493e-07
3505.0,3.441e-07
3510.0,3.485e-07
3515.0,3.314e-07
3520.0,3.538e-07
3525.0,3.282e-07
3530.0,3.176e-07
3535.0,2.577e-07
3540.0,2.432e-07
3545.0,2.581e-07
3550.0,2.926e-07
3555.0,2.437e-07
3560.0,2.995e-07
3565.0,2.986e-07
3570.0,2.224e-07
3575.0,2.294e-07
3580.0,2.787e-07
3585.0,2.416e-07
3590.0,2.526e-07
3595.0,2.587e-07
3600.0,2.771e-07
3605.0,2.759e-07
3610.0,2.487e-07
3615.0,2.493e-07
3620.0,3.136e-07
3625.0,2.657e-07
3630.0,2.582e-07
3635.0,2.662e-07
3640.0,3.021e-07
3645.0,2.699e-07
3650.0,2.557e-07
3655.0,2.807e-07
3660.0,2.778e-07
3665.0,2.544e-07
3670.0,1.887e-07
3675.0,1.048e-07
3680.0,1.957e-07
3685.0,2.266e-07
3690.0,2.341e-07
3695.0,2.453e-07
3700.0,2.674e-07
3705.0,2.619e-07
3710.0,2.211e-07
3715.0,2.17e-07
3720.0,2.499e-07
3725.0,2.569e-07
3730.0,2.164e-07
3735.0,1.945e-07
3740.0,2.005e-07
3745.0,2.394e-07
3750.0,2.133e-07
3755.0,2.048e-07
3760.0,2.002e-07
3765.0,1.916e-07
3770.0,2.07e-07
3775.0,2.036e-07
3780.0,2.171e-07
3785.0,1.947e-07
3790.0,1.679e-07
3795.0,1.959e-07
3800.0,2.234e-07
3805.0,2.067e-07
3810.0,1.782e-07
3815.0,1.647e-07
3820.0,2.142e-07
3825.0,2.081e-07
3830.0,2.112e-07
3835.0,1.597e-07
3840.0,1.933e-07
3845.0,1.867e-07
3850.0,1.875e-07
3855.0,1.774e-07
3860.0,1.626e-07
3865.0,1.635e-07
3870.0,1.445e-07
3875.0,1.284e-07
3880.0,1.228e-07
3885.0,1.275e-07
3890.0,1.293e-07
3895.0,1.442e-07
3900.0,1.549e-07
3905.0,1.539e-07
3910.0,1.339e-07
3915.0,1.294e-07
3920.0,1.288e-07
3925.0,1.257e-07
3930.0,1.304e-07
3935.0,1.368e-07
3940.0,1.384e-07
3945.0,1.409e-07
3950.0,1.432e-07
3955.0,1.446e-07
3960.0,1.456e-07
3965.0,1.466e-07
3970.0,1.441e-07
3975.0,1.391e-07
3980.0,1.362e-07
3985.0,1.364e-07
3990.0,1.338e-07
3995.0,1.298e-07
4000.0,1.236e-07
