interpolation:linear
wavelength,value
280.0,3.0819999999999996e-23
280.5,1.07e-21
281.0,5.8310000000000004e-21
281.5,1.953e-19
282.0,1.602e-18
282.5,4.593e-18
283.0,1.384e-17
283.5,2.221e-17
284.0,3.663e-16
284.5,1.076e-15
285.0,9.935e-16
285.5,5.108e-15
286.0,2.071e-14
286.5,9.522e-14
287.0,2.765e-13
287.5,1.085e-12
288.0,8.299e-12
288.5,1.992e-11
289.0,4.685e-11
289.5,1.307e-10
290.0,3.464e-10
290.5,6.837e-10
291.0,1.426e-09
291.5,3.991e-09
292.0,7.566e-09
292.5,1.014e-08
293.0,2.071e-08
293.5,4.782e-08
294.0,7.171e-08
294.5,1.443e-08
295.0,2.428e-08
295.5,3.737e-08
296.0,6.609e-08
296.5,8.478e-08
297.0,1.068e-07
297.5,2.572e-07
298.0,3.692e-07
298.5,3.453e-07
299.0,7.088e-07
299.5,1.036e-06
300.0,1.061e-06
300.5,1.427e-06
301.0,2.29e-06
301.5,3.273e-06
302.0,2.647e-06
302.5,3.869e-06
303.0,6.849e-06
303.5,8.527e-06
304.0,7.938e-06
304.5,1.17e-05
305.0,1.787e-05
305.5,2.083e-05
306.0,2.036e-05
306.5,2.583e-05
307.0,4.046e-05
307.5,5.751e-05
308.0,6.149e-05
308.5,7.551e-05
309.0,6.65e-05
309.5,7.719e-05
310.0,7.911e-05
310.5,0.0001298
311.0,0.0001669
311.5,0.0001631
312.0,0.0001753
312.5,0.000226
313.0,0.0002535
313.5,0.0002387
314.0,0.0003233
314.5,0.000324
315.0,0.0004359
315.5,0.0003423
316.0,0.000334
316.5,0.0005499
317.0,0.0006811
317.5,0.0006813
318.0,0.0005846
318.5,0.0008772
319.0,0.001149
319.5,0.0007997
320.0,0.0009439
320.5,0.001442
321.0,0.00155
321.5,0.001515
322.0,0.001318
322.5,0.001158
323.0,0.001316
323.5,0.003286
324.0,0.00399
324.5,0.00366
325.0,0.001695
325.5,0.002434
326.0,0.005661
326.5,0.006467
327.0,0.006114
327.5,0.005566
328.0,0.00417
328.5,0.005392
329.0,0.00778
329.5,0.009361
330.0,0.009006
330.5,0.006189
331.0,0.006046
331.5,0.006814
332.0,0.008643
332.5,0.009173
333.0,0.008783
333.5,0.00707
334.0,0.007099
334.5,0.009359
335.0,0.009476
335.5,0.01177
336.0,0.008143
336.5,0.008642
337.0,0.00671
337.5,0.008176
338.0,0.008887
338.5,0.01106
339.0,0.01103
339.5,0.01056
340.0,0.01154
340.5,0.01051
341.0,0.01095
341.5,0.0102
342.0,0.01223
342.5,0.01149
343.0,0.01253
343.5,0.01173
344.0,0.008102
344.5,0.008661
345.0,0.01165
345.5,0.01198
346.0,0.01023
346.5,0.01162
347.0,0.01238
347.5,0.009987
348.0,0.01149
348.5,0.01155
349.0,0.01074
349.5,0.01062
350.0,0.01315
350.5,0.01387
351.0,0.01234
351.5,0.01185
352.0,0.01283
352.5,0.01007
353.0,0.01273
353.5,0.01364
354.0,0.01419
354.5,0.01439
355.0,0.01432
355.5,0.01296
356.0,0.01357
356.5,0.01159
357.0,0.009578
357.5,0.01173
358.0,0.009309
358.5,0.007959
359.0,0.01112
359.5,0.01413
360.0,0.015
360.5,0.01201
361.0,0.01096
361.5,0.01263
362.0,0.01093
362.5,0.01514
363.0,0.0136
363.5,0.01253
364.0,0.01533
364.5,0.0131
365.0,0.01334
365.5,0.01675
366.0,0.01775
366.5,0.01669
367.0,0.01626
367.5,0.01687
368.0,0.01477
368.5,0.0149
369.0,0.01609
369.5,0.01716
370.0,0.0183
370.5,0.01421
371.0,0.01518
371.5,0.019
372.0,0.01261
372.5,0.01513
373.0,0.01539
373.5,0.01001
374.0,0.01455
374.5,0.01205
375.0,0.01172
375.5,0.0175
376.0,0.01451
376.5,0.01504
377.0,0.01593
377.5,0.01864
378.0,0.02021
378.5,0.0191
379.0,0.01577
379.5,0.01441
380.0,0.01498
380.5,0.01815
381.0,0.01819
381.5,0.01442
382.0,0.01281
382.5,0.01092
383.0,0.01011
383.5,0.009741
384.0,0.01075
384.5,0.01581
385.0,0.01568
385.5,0.01461
386.0,0.01251
386.5,0.01644
387.0,0.01366
387.5,0.01535
388.0,0.01417
388.5,0.01401
389.0,0.01513
389.5,0.01832
390.0,0.01839
390.5,0.01693
391.0,0.01993
391.5,0.02033
392.0,0.01713
392.5,0.01534
393.0,0.008536
393.5,0.006205
394.0,0.01263
394.5,0.01606
395.0,0.0196
395.5,0.01991
396.0,0.01727
396.5,0.0101
397.0,0.007578
397.5,0.01542
398.0,0.02159
398.5,0.02232
399.0,0.02417
399.5,0.0241
400.0,0.02503
401.0,0.02471
402.0,0.02607
403.0,0.02477
404.0,0.02439
405.0,0.02439
406.0,0.024
407.0,0.0236
408.0,0.02451
409.0,0.02622
410.0,0.02291
411.0,0.02482
412.0,0.02666
413.0,0.02601
414.0,0.02633
415.0,0.02638
416.0,0.02683
417.0,0.02616
418.0,0.02567
419.0,0.02601
420.0,0.02589
421.0,0.02707
422.0,0.02571
423.0,0.02508
424.0,0.02649
425.0,0.02642
426.0,0.02572
427.0,0.02525
428.0,0.02461
429.0,0.02332
430.0,0.0204
431.0,0.0202
432.0,0.02604
433.0,0.02616
434.0,0.02428
435.0,0.02536
436.0,0.02857
437.0,0.02816
438.0,0.02559
439.0,0.02639
440.0,0.02717
441.0,0.02808
442.0,0.03005
443.0,0.02924
444.0,0.02989
445.0,0.02928
446.0,0.02798
447.0,0.03025
448.0,0.03067
449.0,0.03071
450.0,0.03149
451.0,0.03261
452.0,0.03142
453.0,0.02954
454.0,0.03083
455.0,0.03093
456.0,0.03159
457.0,0.03198
458.0,0.03075
459.0,0.03043
460.0,0.03036
461.0,0.03096
462.0,0.03117
463.0,0.03099
464.0,0.03055
465.0,0.03023
466.0,0.03053
467.0,0.02992
468.0,0.03016
469.0,0.0302
470.0,0.02916
471.0,0.02909
472.0,0.03064
473.0,0.03021
474.0,0.0302
475.0,0.03033
476.0,0.02925
477.0,0.02914
478.0,0.02974
479.0,0.02932
480.0,0.02915
481.0,0.02951
482.0,0.02955
483.0,0.02918
484.0,0.02862
485.0,0.02734
486.0,0.02396
487.0,0.02512
488.0,0.02751
489.0,0.0275
490.0,0.02881
491.0,0.0282
492.0,0.02656
493.0,0.02738
494.0,0.0276
495.0,0.02777
496.0,0.02784
497.0,0.0281
498.0,0.02658
499.0,0.02668
500.0,0.02567
501.0,0.02496
502.0,0.02435
503.0,0.02511
504.0,0.02428
505.0,0.02503
506.0,0.02579
507.0,0.02453
508.0,0.02379
509.0,0.0245
510.0,0.02438
511.0,0.02501
512.0,0.02522
513.0,0.02378
514.0,0.0235
515.0,0.02315
516.0,0.02299
517.0,0.02035
518.0,0.02131
519.0,0.02226
520.0,0.02296
521.0,0.02304
522.0,0.02291
523.0,0.02238
524.0,0.02298
525.0,0.02304
526.0,0.02182
527.0,0.02036
528.0,0.02133
529.0,0.02231
530.0,0.02182
531.0,0.02198
532.0,0.02111
533.0,0.0204
534.0,0.02094
535.0,0.02137
536.0,0.02153
537.0,0.02064
538.0,0.02094
539.0,0.02068
540.0,0.01973
541.0,0.01974
542.0,0.02023
543.0,0.01989
544.0,0.02012
545.0,0.01996
546.0,0.01994
547.0,0.01985
548.0,0.01953
549.0,0.01951
550.0,0.01966
551.0,0.01934
552.0,0.01939
553.0,0.01895
554.0,0.0193
555.0,0.01923
556.0,0.01887
557.0,0.01815
558.0,0.01787
559.0,0.01738
560.0,0.01744
561.0,0.01752
562.0,0.01724
563.0,0.01756
564.0,0.01696
565.0,0.0167
566.0,0.01635
567.0,0.01655
568.0,0.01629
569.0,0.01579
570.0,0.0157
571.0,0.01551
572.0,0.01578
573.0,0.01587
574.0,0.01577
575.0,0.01543
576.0,0.01527
577.0,0.01543
578.0,0.01519
579.0,0.01527
580.0,0.01557
581.0,0.01567
582.0,0.01598
583.0,0.01601
584.0,0.01614
585.0,0.01573
586.0,0.01538
587.0,0.01567
588.0,0.01522
589.0,0.0134
590.0,0.01395
591.0,0.01472
592.0,0.01443
593.0,0.01455
594.0,0.01433
595.0,0.01385
596.0,0.01433
597.0,0.01404
598.0,0.0139
599.0,0.01382
600.0,0.01375
601.0,0.01358
602.0,0.01344
603.0,0.01363
604.0,0.01384
605.0,0.01377
606.0,0.01372
607.0,0.01388
608.0,0.01376
609.0,0.01382
610.0,0.01376
611.0,0.01387
612.0,0.01387
613.0,0.01372
614.0,0.01357
615.0,0.01389
616.0,0.01345
617.0,0.01344
618.0,0.01398
619.0,0.01384
620.0,0.01393
621.0,0.01394
622.0,0.01378
623.0,0.01356
624.0,0.01331
625.0,0.01328
626.0,0.01347
627.0,0.0136
628.0,0.01256
629.0,0.01322
630.0,0.01291
631.0,0.01325
632.0,0.01311
633.0,0.01353
634.0,0.01343
635.0,0.01365
636.0,0.01349
637.0,0.01373
638.0,0.01389
639.0,0.01376
640.0,0.01365
641.0,0.01365
642.0,0.01361
643.0,0.0138
644.0,0.01377
645.0,0.01378
646.0,0.01344
647.0,0.01322
648.0,0.01324
649.0,0.01296
650.0,0.01309
651.0,0.01366
652.0,0.01303
653.0,0.01347
654.0,0.01332
655.0,0.01278
656.0,0.01134
657.0,0.01165
658.0,0.01307
659.0,0.01317
660.0,0.01322
661.0,0.01332
662.0,0.01336
663.0,0.01309
664.0,0.01324
665.0,0.01325
666.0,0.01326
667.0,0.01325
668.0,0.01327
669.0,0.01347
670.0,0.01341
671.0,0.01341
672.0,0.01329
673.0,0.0135
674.0,0.01344
675.0,0.01331
676.0,0.01338
677.0,0.01323
678.0,0.01325
679.0,0.01302
680.0,0.0131
681.0,0.01299
682.0,0.01294
683.0,0.01288
684.0,0.01278
685.0,0.01287
686.0,0.01275
687.0,0.008175
688.0,0.009533
689.0,0.009551
690.0,0.01001
691.0,0.01056
692.0,0.011
693.0,0.0109
694.0,0.01084
695.0,0.01135
696.0,0.01135
697.0,0.01215
698.0,0.01192
699.0,0.01152
700.0,0.01136
701.0,0.01118
702.0,0.01125
703.0,0.01128
704.0,0.01166
705.0,0.01162
706.0,0.0116
707.0,0.01158
708.0,0.01157
709.0,0.01159
710.0,0.01152
711.0,0.01149
712.0,0.01144
713.0,0.01126
714.0,0.01128
715.0,0.01085
716.0,0.0108
717.0,0.009137
718.0,0.008378
719.0,0.007655
720.0,0.007979
721.0,0.008852
722.0,0.01019
723.0,0.009426
724.0,0.008419
725.0,0.00825
726.0,0.008601
727.0,0.008754
728.0,0.008146
729.0,0.008474
730.0,0.008921
731.0,0.008495
732.0,0.009132
733.0,0.009695
734.0,0.009929
735.0,0.009675
736.0,0.009601
737.0,0.009615
738.0,0.009818
739.0,0.00959
740.0,0.009828
741.0,0.009705
742.0,0.009693
743.0,0.009898
744.0,0.009836
745.0,0.009809
746.0,0.009813
747.0,0.0098
748.0,0.009745
749.0,0.009604
750.0,0.009574
751.0,0.009456
752.0,0.009478
753.0,0.009506
754.0,0.009503
755.0,0.009422
756.0,0.009393
757.0,0.009376
758.0,0.009225
759.0,0.00892
760.0,0.001488
761.0,0.0007934
762.0,0.004358
763.0,0.002217
764.0,0.003279
765.0,0.004309
766.0,0.005234
767.0,0.006578
768.0,0.007695
769.0,0.0079
770.0,0.008254
771.0,0.008352
772.0,0.008355
773.0,0.008376
774.0,0.008296
775.0,0.008193
776.0,0.008251
777.0,0.0081
778.0,0.008009
779.0,0.00798
780.0,0.007907
781.0,0.007889
782.0,0.007921
783.0,0.007767
784.0,0.007788
785.0,0.007708
786.0,0.007767
787.0,0.007557
788.0,0.007428
789.0,0.007403
790.0,0.007138
791.0,0.00722
792.0,0.007154
793.0,0.007011
794.0,0.007165
795.0,0.007247
796.0,0.006912
797.0,0.0069
798.0,0.00715
799.0,0.007065
800.0,0.006886
801.0,0.006824
802.0,0.006769
803.0,0.006671
804.0,0.006669
805.0,0.006645
806.0,0.006848
807.0,0.006727
808.0,0.006691
809.0,0.006494
810.0,0.006405
811.0,0.006332
812.0,0.006081
813.0,0.005918
814.0,0.005117
815.0,0.005067
816.0,0.004692
817.0,0.004753
818.0,0.004556
819.0,0.005097
820.0,0.004801
821.0,0.005675
822.0,0.005469
823.0,0.003612
824.0,0.005252
825.0,0.005551
826.0,0.005255
827.0,0.005584
828.0,0.004619
829.0,0.005204
830.0,0.005119
831.0,0.005111
832.0,0.004921
833.0,0.005253
834.0,0.005037
835.0,0.005591
836.0,0.005272
837.0,0.005558
838.0,0.005336
839.0,0.005433
840.0,0.005542
841.0,0.00542
842.0,0.005433
843.0,0.005447
844.0,0.005332
845.0,0.005502
846.0,0.005464
847.0,0.005344
848.0,0.005269
849.0,0.005094
850.0,0.004852
851.0,0.005092
852.0,0.00504
853.0,0.004837
854.0,0.004151
855.0,0.004557
856.0,0.004959
857.0,0.005063
858.0,0.005006
859.0,0.005003
860.0,0.005001
861.0,0.004958
862.0,0.005025
863.0,0.00513
864.0,0.00486
865.0,0.004804
866.0,0.004306
867.0,0.004479
868.0,0.004857
869.0,0.004741
870.0,0.00486
871.0,0.004776
872.0,0.004742
873.0,0.004715
874.0,0.004641
875.0,0.004529
876.0,0.004557
877.0,0.004585
878.0,0.004614
879.0,0.004525
880.0,0.004409
881.0,0.004318
882.0,0.004388
883.0,0.004391
884.0,0.004349
885.0,0.00436
886.0,0.004118
887.0,0.004163
888.0,0.004196
889.0,0.004244
890.0,0.00417
891.0,0.00416
892.0,0.003992
893.0,0.003835
894.0,0.003638
895.0,0.003379
896.0,0.003151
897.0,0.002671
898.0,0.00291
899.0,0.002176
900.0,0.002965
901.0,0.002268
902.0,0.002663
903.0,0.002684
904.0,0.003455
905.0,0.003313
906.0,0.003077
907.0,0.002441
908.0,0.002497
909.0,0.002699
910.0,0.002353
911.0,0.002526
912.0,0.00264
913.0,0.002362
914.0,0.002349
915.0,0.002521
916.0,0.002129
917.0,0.002711
918.0,0.002162
919.0,0.002746
920.0,0.002803
921.0,0.002899
922.0,0.002555
923.0,0.002782
924.0,0.00259
925.0,0.002518
926.0,0.002537
927.0,0.002845
928.0,0.002028
929.0,0.001838
930.0,0.001431
931.0,0.00135
932.0,0.0009658
933.0,0.0007807
934.0,0.0004237
935.0,0.0007936
936.0,0.0004916
937.0,0.0004958
938.0,0.0006078
939.0,0.001265
940.0,0.001518
941.0,0.001137
942.0,0.001312
943.0,0.0008564
944.0,0.0009003
945.0,0.001153
946.0,0.0005815
947.0,0.001149
948.0,0.0008414
949.0,0.001534
950.0,0.0004197
951.0,0.001502
952.0,0.000799
953.0,0.001032
954.0,0.001264
955.0,0.001037
956.0,0.001007
957.0,0.0007855
958.0,0.001423
959.0,0.001119
960.0,0.001251
961.0,0.001405
962.0,0.001324
963.0,0.00153
964.0,0.001393
965.0,0.00151
966.0,0.001509
967.0,0.001496
968.0,0.002073
969.0,0.002131
970.0,0.001953
971.0,0.002258
972.0,0.002144
973.0,0.00182
974.0,0.001721
975.0,0.001789
976.0,0.001678
977.0,0.001949
978.0,0.001817
979.0,0.001907
980.0,0.001784
981.0,0.002168
982.0,0.002054
983.0,0.001954
984.0,0.002241
985.0,0.002017
986.0,0.00229
987.0,0.002209
988.0,0.002205
989.0,0.002271
990.0,0.002161
991.0,0.002249
992.0,0.002259
993.0,0.002177
994.0,0.002248
995.0,0.002243
996.0,0.002221
997.0,0.002221
998.0,0.002201
999.0,0.002187
1000.0,0.002158
1001.0,0.002184
1002.0,0.002084
1003.0,0.002129
1004.0,0.002059
1005.0,0.001988
1006.0,0.002056
1007.0,0.002092
1008.0,0.002069
1009.0,0.002045
1010.0,0.002027
1011.0,0.002051
1012.0,0.002023
1013.0,0.002034
1014.0,0.002012
1015.0,0.001991
1016.0,0.001973
1017.0,0.00197
1018.0,0.001959
1019.0,0.001898
1020.0,0.001933
1021.0,0.001925
1022.0,0.001899
1023.0,0.001913
1024.0,0.001871
1025.0,0.0019
1026.0,0.001882
1027.0,0.001873
1028.0,0.001861
1029.0,0.00183
1030.0,0.00184
1031.0,0.001825
1032.0,0.001813
1033.0,0.00178
1034.0,0.001773
1035.0,0.001773
1036.0,0.001773
1037.0,0.001739
1038.0,0.00174
1039.0,0.001732
1040.0,0.001718
1041.0,0.001717
1042.0,0.001699
1043.0,0.001687
1044.0,0.001685
1045.0,0.001655
1046.0,0.00163
1047.0,0.001638
1048.0,0.00164
1049.0,0.001628
1050.0,0.001613
1051.0,0.001604
1052.0,0.001591
1053.0,0.001571
1054.0,0.001568
1055.0,0.001561
1056.0,0.001548
1057.0,0.001536
1058.0,0.001492
1059.0,0.001486
1060.0,0.001478
1061.0,0.00147
1062.0,0.001471
1063.0,0.00145
1064.0,0.001462
1065.0,0.001443
1066.0,0.001412
1067.0,0.001425
1068.0,0.001386
1069.0,0.001341
1070.0,0.001381
1071.0,0.001404
1072.0,0.001378
1073.0,0.001354
1074.0,0.001393
1075.0,0.001303
1076.0,0.001381
1077.0,0.001344
1078.0,0.001308
1079.0,0.001349
1080.0,0.001307
1081.0,0.001254
1082.0,0.001284
1083.0,0.001287
1084.0,0.001236
1085.0,0.00129
1086.0,0.001155
1087.0,0.001199
1088.0,0.001262
1089.0,0.001201
1090.0,0.001165
1091.0,0.001238
1092.0,0.001233
1093.0,0.001012
1094.0,0.001115
1095.0,0.001045
1096.0,0.0009913
1097.0,0.001185
1098.0,0.0009683
1099.0,0.001006
1100.0,0.0009227
1101.0,0.0009365
1102.0,0.0008858
1103.0,0.0008689
1104.0,0.00087
1105.0,0.0009558
1106.0,0.000712
1107.0,0.0009005
1108.0,0.0007475
1109.0,0.0007463
1110.0,0.0008751
1111.0,0.0005803
1112.0,0.0007342
1113.0,0.0004575
1114.0,0.0005099
1115.0,0.0004208
1116.0,0.0003326
1117.0,0.0001196
1118.0,0.0003601
1119.0,0.0001763
1120.0,0.0002211
1121.0,0.0002935
1122.0,0.0001216
1123.0,0.0001978
1124.0,0.0001664
1125.0,0.0002167
1126.0,7.368e-05
1127.0,0.000243
1128.0,0.0001432
1129.0,0.0001517
1130.0,9.883e-05
1131.0,0.0004585
1132.0,0.0003577
1133.0,0.0002238
1134.0,5.577e-05
1135.0,2.09e-05
1136.0,0.0001841
1137.0,0.0004406
1138.0,0.0003089
1139.0,0.0004634
1140.0,0.0003842
1141.0,0.0002907
1142.0,0.0003341
1143.0,0.0004745
1144.0,0.0001632
1145.0,0.0002073
1146.0,0.0002228
1147.0,7.664e-05
1148.0,0.0004037
1149.0,0.0003201
1150.0,0.0001723
1151.0,0.0002934
1152.0,0.0003613
1153.0,0.0003521
1154.0,0.0001948
1155.0,0.0004582
1156.0,0.0004105
1157.0,0.0004611
1158.0,0.0004546
1159.0,0.0004897
1160.0,0.0004166
1161.0,0.0005165
1162.0,0.0005177
1163.0,0.0007098
1164.0,0.000602
1165.0,0.0005614
1166.0,0.0005602
1167.0,0.0006098
1168.0,0.0006157
1169.0,0.0006308
1170.0,0.0006895
1171.0,0.0006661
1172.0,0.0006843
1173.0,0.000679
1174.0,0.0004735
1175.0,0.0006642
1176.0,0.0007425
1177.0,0.000701
1178.0,0.000513
1179.0,0.0007391
1180.0,0.000647
1181.0,0.0006625
1182.0,0.0004445
1183.0,0.0006507
1184.0,0.0006048
1185.0,0.0005771
1186.0,0.0006956
1187.0,0.0006525
1188.0,0.0004426
1189.0,0.0006043
1190.0,0.0006727
1191.0,0.0006269
1192.0,0.0006795
1193.0,0.0006465
1194.0,0.000665
1195.0,0.0006198
1196.0,0.0005909
1197.0,0.0006607
1198.0,0.0006014
1199.0,0.0004962
1200.0,0.0006221
1201.0,0.0005912
1202.0,0.0005938
1203.0,0.0005809
1204.0,0.0005058
1205.0,0.0006064
1206.0,0.0006755
1207.0,0.0005801
1208.0,0.0005735
1209.0,0.0005828
1210.0,0.0006114
1211.0,0.0005759
1212.0,0.0005573
1213.0,0.0006331
1214.0,0.0005699
1215.0,0.0005561
1216.0,0.000628
1217.0,0.0006059
1218.0,0.0006188
1219.0,0.0006068
1220.0,0.000615
1221.0,0.0006238
1222.0,0.0006023
1223.0,0.0005937
1224.0,0.0005845
1225.0,0.0006086
1226.0,0.0006154
1227.0,0.0005548
1228.0,0.0006173
1229.0,0.0006089
1230.0,0.0005954
1231.0,0.0006173
1232.0,0.0006115
1233.0,0.0005776
1234.0,0.0006142
1235.0,0.0006058
1236.0,0.0006103
1237.0,0.0005953
1238.0,0.0006045
1239.0,0.0005949
1240.0,0.000596
1241.0,0.000588
1242.0,0.0005877
1243.0,0.0005814
1244.0,0.0005823
1245.0,0.0005838
1246.0,0.0005788
1247.0,0.0005735
1248.0,0.0005696
1249.0,0.0005711
1250.0,0.0005646
1251.0,0.0005532
1252.0,0.0005548
1253.0,0.0005431
1254.0,0.0005328
1255.0,0.0005478
1256.0,0.0005215
1257.0,0.0005154
1258.0,0.00053
1259.0,0.0004976
1260.0,0.0004999
1261.0,0.0004609
1262.0,0.0004424
1263.0,0.0004418
1264.0,0.0004023
1265.0,0.0004363
1266.0,0.0004156
1267.0,0.0004236
1268.0,0.0003977
1269.0,0.0002448
1270.0,0.0004173
1271.0,0.0004468
1272.0,0.0004472
1273.0,0.0004402
1274.0,0.0004419
1275.0,0.000448
1276.0,0.000453
1277.0,0.0004578
1278.0,0.0004692
1279.0,0.0004643
1280.0,0.0004573
1281.0,0.0004378
1282.0,0.0004244
1283.0,0.0004547
1284.0,0.0004642
1285.0,0.0004668
1286.0,0.0004734
1287.0,0.0004614
1288.0,0.0004615
1289.0,0.0004375
1290.0,0.0004544
1291.0,0.0004611
1292.0,0.0004202
1293.0,0.0004472
1294.0,0.0004416
1295.0,0.0004323
1296.0,0.0004077
1297.0,0.0003819
1298.0,0.0004158
1299.0,0.0004389
1300.0,0.0003577
1301.0,0.0003673
1302.0,0.00041
1303.0,0.0003516
1304.0,0.0002924
1305.0,0.000396
1306.0,0.0003921
1307.0,0.0002974
1308.0,0.0003458
1309.0,0.0003837
1310.0,0.0002887
1311.0,0.0003282
1312.0,0.0003176
1313.0,0.0003073
1314.0,0.0002713
1315.0,0.000267
1316.0,0.0003167
1317.0,0.0002987
1318.0,0.0003259
1319.0,0.0002481
1320.0,0.0002391
1321.0,0.0002801
1322.0,0.0002802
1323.0,0.0002084
1324.0,0.0002399
1325.0,0.0003006
1326.0,0.0002556
1327.0,0.0002423
1328.0,0.000207
1329.0,0.0001545
1330.0,0.0002008
1331.0,0.0001206
1332.0,0.0001242
1333.0,0.0001724
1334.0,0.0001458
1335.0,0.0002
1336.0,0.0001575
1337.0,0.0001389
1338.0,0.0001498
1339.0,0.0001487
1340.0,0.0001443
1341.0,0.0001403
1342.0,0.000147
1343.0,9.9e-05
1344.0,5.912e-05
1345.0,8.504e-05
1346.0,4.195e-05
1347.0,4.25e-05
1348.0,2.74e-06
1349.0,9.829e-06
1350.0,1.019e-05
1351.0,2.463e-06
1352.0,6.627e-07
1353.0,3.372e-08
1354.0,1.159e-07
1355.0,9.334e-10
1356.0,1.634e-08
1357.0,2.482e-08
1358.0,1.096e-09
1359.0,1.381e-10
1360.0,4.99e-10
1361.0,5.582e-13
1362.0,1.527e-15
1363.0,6.711e-10
1364.0,2.771e-10
1365.0,5.333e-16
1366.0,2.909e-09
1367.0,1.187e-09
1368.0,4.118e-18
1369.0,1.021e-10
1370.0,5.03e-11
1371.0,2.851e-12
1372.0,6.441e-10
1373.0,1.298e-08
1374.0,6.019e-08
1375.0,1.092e-07
1376.0,9.792e-08
1377.0,4.473e-08
1378.0,4.373e-07
1379.0,1.869e-08
1380.0,2.686e-08
1381.0,6.997e-10
1382.0,5.648e-10
1383.0,8.444e-12
1384.0,1.107e-10
1385.0,5.295e-10
1386.0,4.981e-10
1387.0,6.024e-08
1388.0,1.185e-09
1389.0,2.034e-07
1390.0,1.746e-07
1391.0,1.161e-07
1392.0,7.527e-09
1393.0,3.988e-08
1394.0,2.055e-08
1395.0,1.506e-10
1396.0,7.28e-13
1397.0,1.57e-08
1398.0,4.643e-07
1399.0,2.937e-07
1400.0,3.114e-13
1401.0,1.292e-12
1402.0,8.137e-07
1403.0,1.019e-06
1404.0,3.097e-07
1405.0,7.136e-11
1406.0,8.005e-07
1407.0,7.055e-08
1408.0,6.514e-07
1409.0,2.171e-07
1410.0,1.738e-07
1411.0,8.767e-07
1412.0,1.183e-06
1413.0,1.231e-05
1414.0,1.357e-07
1415.0,6.483e-08
1416.0,2.035e-05
1417.0,6.009e-06
1418.0,6.805e-06
1419.0,1.047e-06
1420.0,4.136e-06
1421.0,4.461e-06
1422.0,2.616e-05
1423.0,5.018e-06
1424.0,9.419e-06
1425.0,1.376e-05
1426.0,1.575e-05
1427.0,2.929e-05
1428.0,2.05e-06
1429.0,2.157e-05
1430.0,3.722e-05
1431.0,4.092e-05
1432.0,1.593e-06
1433.0,2.568e-05
1434.0,1.292e-05
1435.0,1.252e-05
1436.0,2.466e-05
1437.0,1.885e-05
1438.0,7.781e-06
1439.0,3.351e-05
1440.0,2.502e-05
1441.0,1.871e-05
1442.0,2.073e-05
1443.0,2.644e-05
1444.0,3.681e-05
1445.0,2.828e-05
1446.0,1.255e-05
1447.0,1.977e-05
1448.0,7.005e-05
1449.0,6.02e-05
1450.0,1.457e-05
1451.0,5.738e-06
1452.0,3.543e-05
1453.0,4.67e-05
1454.0,8.214e-05
1455.0,3.781e-05
1456.0,5.041e-05
1457.0,6.869e-05
1458.0,8.207e-05
1459.0,9.663e-05
1460.0,4.948e-05
1461.0,5.094e-05
1462.0,7.566e-05
1463.0,2.368e-05
1464.0,9.03e-05
1465.0,5.403e-05
1466.0,3.578e-05
1467.0,1.831e-05
1468.0,4.235e-05
1469.0,5.254e-05
1470.0,2.524e-05
1471.0,8.951e-06
1472.0,2.399e-05
1473.0,3.73e-05
1474.0,5.534e-05
1475.0,0.0001063
1476.0,3.709e-05
1477.0,3.705e-05
1478.0,3.461e-05
1479.0,6.746e-05
1480.0,3.173e-05
1481.0,6.386e-05
1482.0,3.102e-05
1483.0,8.307e-05
1484.0,7.777e-05
1485.0,6.863e-05
1486.0,6.71e-05
1487.0,2.99e-05
1488.0,5.345e-05
1489.0,0.0001068
1490.0,9.873e-05
1491.0,0.0001121
1492.0,9.1e-05
1493.0,0.0001008
1494.0,0.0001146
1495.0,0.0001008
1496.0,9.385e-05
1497.0,0.0001318
1498.0,0.0001058
1499.0,0.0001238
1500.0,0.0001456
1501.0,0.0001524
1502.0,0.0001276
1503.0,0.0001062
1504.0,8.385e-05
1505.0,0.000102
1506.0,0.0001515
1507.0,0.0001452
1508.0,0.0001377
1509.0,0.0001026
1510.0,0.0001569
1511.0,0.0001497
1512.0,0.00015
1513.0,0.0001343
1514.0,0.0001246
1515.0,0.0001536
1516.0,0.0001458
1517.0,0.0001401
1518.0,0.0001407
1519.0,0.0001357
1520.0,0.0001473
1521.0,0.0001614
1522.0,0.0001502
1523.0,0.0001634
1524.0,0.000156
1525.0,0.0001464
1526.0,0.0001479
1527.0,0.000148
1528.0,0.0001597
1529.0,0.0001505
1530.0,0.0001454
1531.0,0.0001507
1532.0,0.000159
1533.0,0.0001592
1534.0,0.000156
1535.0,0.0001539
1536.0,0.000157
1537.0,0.0001528
1538.0,0.0001551
1539.0,0.0001516
1540.0,0.0001524
1541.0,0.0001528
1542.0,0.0001503
1543.0,0.0001534
1544.0,0.0001508
1545.0,0.000154
1546.0,0.0001503
1547.0,0.0001485
1548.0,0.0001481
1549.0,0.0001495
1550.0,0.0001478
1551.0,0.0001482
1552.0,0.0001465
1553.0,0.0001458
1554.0,0.0001439
1555.0,0.0001443
1556.0,0.0001437
1557.0,0.0001452
1558.0,0.000144
1559.0,0.0001427
1560.0,0.0001432
1561.0,0.0001438
1562.0,0.0001414
1563.0,0.0001399
1564.0,0.0001401
1565.0,0.0001405
1566.0,0.000138
1567.0,0.000138
1568.0,0.000136
1569.0,0.0001369
1570.0,0.0001376
1571.0,0.0001382
1572.0,0.0001369
1573.0,0.0001354
1574.0,0.0001301
1575.0,0.0001281
1576.0,0.0001253
1577.0,0.0001216
1578.0,0.0001271
1579.0,0.0001274
1580.0,0.0001284
1581.0,0.0001262
1582.0,0.0001234
1583.0,0.0001235
1584.0,0.0001264
1585.0,0.0001277
1586.0,0.0001257
1587.0,0.0001233
1588.0,0.0001203
1589.0,0.0001164
1590.0,0.0001184
1591.0,0.0001211
1592.0,0.000124
1593.0,0.000126
1594.0,0.0001252
1595.0,0.0001235
1596.0,0.0001194
1597.0,0.0001217
1598.0,0.0001237
1599.0,0.0001221
1600.0,0.0001212
1601.0,0.0001189
1602.0,0.0001187
1603.0,0.0001201
1604.0,0.0001188
1605.0,0.0001186
1606.0,0.0001169
1607.0,0.0001177
1608.0,0.0001168
1609.0,0.0001138
1610.0,0.0001111
1611.0,0.0001127
1612.0,0.000114
1613.0,0.0001135
1614.0,0.0001135
1615.0,0.0001107
1616.0,0.0001087
1617.0,0.0001102
1618.0,0.0001122
1619.0,0.0001094
1620.0,0.0001073
1621.0,0.0001081
1622.0,0.0001095
1623.0,0.0001109
1624.0,0.0001091
1625.0,0.0001084
1626.0,0.0001083
1627.0,0.000109
1628.0,0.0001082
1629.0,0.0001073
1630.0,0.0001062
1631.0,0.0001048
1632.0,0.0001047
1633.0,0.0001002
1634.0,0.0001035
1635.0,0.0001004
1636.0,0.0001002
1637.0,9.928e-05
1638.0,9.12e-05
1639.0,9.661e-05
1640.0,8.996e-05
1641.0,9.511e-05
1642.0,9.733e-05
1643.0,8.857e-05
1644.0,9.71e-05
1645.0,9.199e-05
1646.0,8.821e-05
1647.0,9.779e-05
1648.0,8.756e-05
1649.0,9.414e-05
1650.0,9.487e-05
1651.0,8.463e-05
1652.0,9.311e-05
1653.0,9.432e-05
1654.0,8.642e-05
1655.0,9.367e-05
1656.0,9.072e-05
1657.0,9.17e-05
1658.0,9.375e-05
1659.0,9.25e-05
1660.0,9.308e-05
1661.0,9.239e-05
1662.0,8.86e-05
1663.0,9.186e-05
1664.0,9.058e-05
1665.0,8.285e-05
1666.0,6.551e-05
1667.0,8.173e-05
1668.0,8.674e-05
1669.0,8.728e-05
1670.0,8.906e-05
1671.0,8.576e-05
1672.0,8.506e-05
1673.0,8.7e-05
1674.0,8.38e-05
1675.0,8.266e-05
1676.0,8.367e-05
1677.0,8.267e-05
1678.0,7.925e-05
1679.0,8.255e-05
1680.0,7.871e-05
1681.0,7.493e-05
1682.0,8.045e-05
1683.0,8.205e-05
1684.0,7.289e-05
1685.0,8.251e-05
1686.0,8.205e-05
1687.0,7.722e-05
1688.0,8.085e-05
1689.0,7.996e-05
1690.0,7.91e-05
1691.0,7.024e-05
1692.0,7.81e-05
1693.0,8.113e-05
1694.0,7.644e-05
1695.0,7.948e-05
1696.0,7.966e-05
1697.0,6.41e-05
1698.0,7.802e-05
1699.0,7.698e-05
1700.0,7.395e-05
1702.0,7.555e-05
1705.0,7.189e-05
1710.0,6.719e-05
1715.0,6.683e-05
1720.0,6.561e-05
1725.0,5.945e-05
1730.0,5.864e-05
1735.0,5.392e-05
1740.0,5.399e-05
1745.0,5.028e-05
1750.0,5.25e-05
1755.0,4.781e-05
1760.0,4.912e-05
1765.0,3.937e-05
1770.0,4.149e-05
1775.0,3.268e-05
1780.0,2.754e-05
1785.0,2.037e-05
1790.0,2.337e-05
1795.0,1.134e-05
1800.0,7.8e-06
1805.0,3.097e-06
1810.0,2.01e-06
1815.0,5.817e-07
1820.0,1.455e-07
1825.0,1.899e-07
1830.0,4.629e-10
1835.0,7.01e-10
1840.0,4.091e-12
1845.0,4.374e-10
1850.0,1.974e-10
1855.0,1.887e-11
1860.0,1.081e-09
1865.0,1.507e-09
1870.0,8.249e-15
1875.0,1.49e-14
1880.0,7.937e-09
1885.0,4.23e-09
1890.0,2.32e-08
1895.0,1.346e-08
1900.0,5.754e-11
1905.0,3.92e-11
1910.0,1.898e-09
1915.0,1.85e-09
1920.0,4.851e-08
1925.0,1.14e-07
1930.0,6.582e-08
1935.0,5.017e-07
1940.0,4.982e-07
1945.0,2.052e-06
1950.0,3.99e-06
1955.0,3.559e-06
1960.0,6.256e-06
1965.0,9.088e-06
1970.0,1.274e-05
1975.0,1.433e-05
1980.0,1.427e-05
1985.0,1.527e-05
1990.0,1.576e-05
1995.0,1.651e-05
2000.0,1.742e-05
2005.0,1.437e-05
2010.0,2.114e-05
2015.0,1.601e-05
2020.0,1.717e-05
2025.0,1.88e-05
2030.0,1.696e-05
2035.0,1.872e-05
2040.0,1.751e-05
2045.0,1.794e-05
2050.0,1.828e-05
2055.0,1.717e-05
2060.0,1.64e-05
2065.0,1.661e-05
2070.0,1.619e-05
2075.0,1.667e-05
2080.0,1.61e-05
2085.0,1.584e-05
2090.0,1.592e-05
2095.0,1.524e-05
2100.0,1.394e-05
2105.0,1.508e-05
2110.0,1.42e-05
2115.0,1.456e-05
2120.0,1.338e-05
2125.0,1.355e-05
2130.0,1.369e-05
2135.0,1.369e-05
2140.0,1.37e-05
2145.0,1.342e-05
2150.0,1.224e-05
2155.0,1.213e-05
2160.0,1.193e-05
2165.0,1.074e-05
2170.0,1.143e-05
2175.0,1.095e-05
2180.0,1.123e-05
2185.0,9.837e-06
2190.0,1.064e-05
2195.0,1.041e-05
2200.0,8.833e-06
2205.0,9.384e-06
2210.0,1.033e-05
2215.0,9.669e-06
2220.0,9.813e-06
2225.0,9.388e-06
2230.0,9.357e-06
2235.0,9.003e-06
2240.0,8.814e-06
2245.0,8.306e-06
2250.0,8.511e-06
2255.0,7.742e-06
2260.0,7.546e-06
2265.0,7.739e-06
2270.0,7.136e-06
2275.0,6.957e-06
2280.0,7.313e-06
2285.0,6.709e-06
2290.0,6.66e-06
2295.0,6.417e-06
2300.0,5.999e-06
2305.0,6.006e-06
2310.0,6.67e-06
2315.0,5.801e-06
2320.0,5.011e-06
2325.0,5.634e-06
2330.0,5.55e-06
2335.0,5.657e-06
2340.0,4.27e-06
2345.0,4.796e-06
2350.0,3.75e-06
2355.0,4.335e-06
2360.0,4.58e-06
2365.0,4.514e-06
2370.0,2.571e-06
2375.0,3.875e-06
2380.0,3.685e-06
2385.0,2.586e-06
2390.0,3.067e-06
2395.0,3.361e-06
2400.0,3.661e-06
2405.0,2.741e-06
2410.0,2.724e-06
2415.0,2.152e-06
2420.0,2.07e-06
2425.0,2.594e-06
2430.0,3.536e-06
2435.0,1.091e-06
2440.0,3.399e-06
2445.0,1.531e-06
2450.0,9.623e-07
2455.0,1.832e-06
2460.0,2.459e-06
2465.0,1.72e-06
2470.0,1.136e-06
2475.0,1.101e-06
2480.0,5.145e-07
2485.0,3.351e-07
2490.0,1.927e-07
2495.0,1.667e-07
2500.0,4.136e-07
2505.0,8.408e-08
2510.0,1.236e-07
2515.0,2.618e-08
2520.0,1.472e-08
2525.0,1.679e-09
2530.0,1.169e-11
2535.0,2.585e-12
2540.0,6.132e-12
2545.0,4.756e-16
2550.0,1.928e-18
2555.0,9.255e-15
2560.0,2.778e-16
2565.0,6.218000000000001e-20
2570.0,1.852e-24
2575.0,1.1710000000000001e-34
2580.0,1.221e-28
2585.0,2.5530000000000003e-42
2590.0,1.593e-38
2595.0,3.099e-40
2600.0,2.551e-35
2605.0,2.819e-42
2610.0,9.707e-42
2615.0,1.4009999999999999e-45
2620.0,8.553e-36
2625.0,1.566e-35
2630.0,0.0
2635.0,8.155999999999999e-22
2640.0,1.7659999999999999e-22
2645.0,7.696e-25
2650.0,7.666e-26
2655.0,9.22e-35
2660.0,7.762e-32
2665.0,7.006e-45
2670.0,0.0
2675.0,3.784e-44
2680.0,1.5740000000000001e-30
2685.0,1.504e-31
2690.0,5.626000000000001e-31
2695.0,2.207e-33
2700.0,6.429e-29
2705.0,1.8230000000000002e-26
2710.0,1.452e-31
2715.0,1.833e-29
2720.0,0.0
2725.0,4.105e-27
2730.0,1.197e-24
2735.0,1.3650000000000002e-26
2740.0,2.4650000000000002e-32
2745.0,3.178e-27
2750.0,1.7810000000000003e-26
2755.0,2.866e-28
2760.0,4.2939999999999995e-23
2765.0,2.015e-29
2770.0,9.904e-27
2775.0,1.2229999999999999e-23
2780.0,5.693e-21
2785.0,2.1370000000000003e-20
2790.0,4.873e-18
2795.0,1.072e-18
2800.0,3.422e-15
2805.0,6.399e-17
2810.0,2.566e-13
2815.0,7.654e-14
2820.0,9.352e-16
2825.0,8.209e-12
2830.0,1.784e-10
2835.0,2.457e-15
2840.0,5.258e-12
2845.0,1.82e-09
2850.0,3.149e-11
2855.0,1.258e-11
2860.0,6.54e-10
2865.0,4.823e-09
2870.0,1.223e-10
2875.0,1.174e-08
2880.0,7.397e-09
2885.0,1.219e-08
2890.0,5.18e-09
2895.0,8.83e-08
2900.0,2.461e-08
2905.0,2.849e-09
2910.0,9.006e-08
2915.0,3.822e-08
2920.0,9.485e-08
2925.0,3.381e-08
2930.0,2.047e-07
2935.0,2.256e-07
2940.0,5.052e-08
2945.0,4.338e-08
2950.0,1.751e-07
2955.0,7.797e-08
2960.0,1.547e-07
2965.0,2.619e-07
2970.0,1.026e-08
2975.0,2.599e-08
2980.0,4.045e-08
2985.0,2.38e-07
2990.0,3.604e-07
2995.0,1.369e-07
3000.0,2.602e-07
3005.0,8.858e-08
3010.0,2.278e-07
3015.0,1.766e-07
3020.0,1.596e-08
3025.0,2.433e-07
3030.0,1.917e-07
3035.0,7.288e-08
3040.0,5.696e-08
3045.0,1.223e-07
3050.0,2.773e-08
3055.0,6.783e-09
3060.0,1.904e-07
3065.0,8.061e-08
3070.0,4.53e-08
3075.0,1.775e-07
3080.0,1.031e-07
3085.0,4.553e-08
3090.0,6.191e-08
3095.0,1.523e-08
3100.0,1.237e-07
3105.0,2.319e-08
3110.0,1.941e-08
3115.0,5.824e-08
3120.0,2.853e-07
3125.0,8.381e-08
3130.0,1.664e-07
3135.0,3.335e-07
3140.0,8.868e-08
3145.0,8.696e-08
3150.0,1.835e-07
3155.0,1.544e-07
3160.0,2.561e-07
3165.0,4.02e-07
3170.0,3.559e-07
3175.0,2.5e-07
3180.0,2.95e-07
3185.0,2.065e-07
3190.0,1.082e-07
3195.0,6.008e-08
3200.0,8.479e-09
3205.0,5.539e-09
3210.0,2.308e-09
3215.0,9.382e-09
3220.0,3.294e-08
3225.0,3.788e-09
3230.0,6.291e-09
3235.0,1.763e-07
3240.0,8.015e-08
3245.0,1.521e-08
3250.0,5.612e-08
3255.0,2.404e-07
3260.0,2.401e-08
3265.0,5.197e-08
3270.0,2.447e-08
3275.0,1.477e-07
3280.0,6.273e-08
3285.0,2.716e-07
3290.0,2.044e-07
3295.0,2.515e-08
3300.0,3.737e-08
3305.0,8.581e-08
3310.0,8.149e-08
3315.0,1.181e-10
3320.0,7.443e-10
3325.0,6.844e-08
3330.0,1.039e-07
3335.0,2.011e-07
3340.0,7.412e-08
3345.0,7.199e-08
3350.0,1.794e-07
3355.0,7.282e-08
3360.0,1.118e-07
3365.0,1.576e-07
3370.0,7.633e-08
3375.0,1.849e-07
3380.0,1.005e-07
3385.0,1.592e-07
3390.0,2.091e-07
3395.0,2.027e-07
3400.0,2.736e-07
3405.0,8.371e-08
3410.0,1.47e-07
3415.0,1.429e-07
3420.0,2.851e-07
3425.0,2.04e-07
3430.0,1.72e-07
3435.0,2.446e-07
3440.0,1.566e-07
3445.0,2.329e-07
3450.0,2.273e-07
3455.0,1.621e-07
3460.0,2.584e-07
3465.0,1.911e-07
3470.0,2.495e-07
3475.0,2.162e-07
3480.0,2.213e-07
3485.0,2.406e-07
3490.0,2.006e-07
3495.0,2.413e-07
3500.0,2.329e-07
3505.0,2.297e-07
3510.0,2.322e-07
3515.0,2.201e-07
3520.0,2.334e-07
3525.0,2.166e-07
3530.0,2.09e-07
3535.0,1.707e-07
3540.0,1.613e-07
3545.0,1.704e-07
3550.0,1.918e-07
3555.0,1.607e-07
3560.0,1.956e-07
3565.0,1.946e-07
3570.0,1.466e-07
3575.0,1.511e-07
3580.0,1.815e-07
3585.0,1.582e-07
3590.0,1.65e-07
3595.0,1.686e-07
3600.0,1.799e-07
3605.0,1.789e-07
3610.0,1.619e-07
3615.0,1.621e-07
3620.0,2.023e-07
3625.0,1.719e-07
3630.0,1.672e-07
3635.0,1.721e-07
3640.0,1.945e-07
3645.0,1.739e-07
3650.0,1.651e-07
3655.0,1.806e-07
3660.0,1.79e-07
3665.0,1.636e-07
3670.0,1.23e-07
3675.0,6.989e-08
3680.0,1.272e-07
3685.0,1.46e-07
3690.0,1.503e-07
3695.0,1.573e-07
3700.0,1.71e-07
3705.0,1.674e-07
3710.0,1.418e-07
3715.0,1.394e-07
3720.0,1.595e-07
3725.0,1.637e-07
3730.0,1.386e-07
3735.0,1.249e-07
3740.0,1.284e-07
3745.0,1.522e-07
3750.0,1.36e-07
3755.0,1.306e-07
3760.0,1.277e-07
3765.0,1.223e-07
3770.0,1.317e-07
3775.0,1.294e-07
3780.0,1.377e-07
3785.0,1.239e-07
3790.0,1.073e-07
3795.0,1.244e-07
3800.0,1.41e-07
3805.0,1.307e-07
3810.0,1.132e-07
3815.0,1.05e-07
3820.0,1.348e-07
3825.0,1.312e-07
3830.0,1.328e-07
3835.0,1.015e-07
3840.0,1.215e-07
3845.0,1.173e-07
3850.0,1.176e-07
3855.0,1.115e-07
3860.0,1.025e-07
3865.0,1.029e-07
3870.0,9.166e-08
3875.0,8.211e-08
3880.0,7.865e-08
3885.0,8.143e-08
3890.0,8.237e-08
3895.0,9.1e-08
3900.0,9.723e-08
3905.0,9.644e-08
3910.0,8.474e-08
3915.0,8.203e-08
3920.0,8.157e-08
3925.0,7.97e-08
3930.0,8.238e-08
3935.0,8.598e-08
3940.0,8.683e-08
3945.0,8.818e-08
3950.0,8.936e-08
3955.0,9.008e-08
3960.0,9.064e-08
3965.0,9.11e-08
3970.0,8.957e-08
3975.0,8.651e-08
3980.0,8.476e-08
3985.0,8.476e-08
3990.0,8.312e-08
3995.0,8.073e-08
4000.0,7.689e-08
