interpolation:linear
wavelength,value
280.0,8.604e-21
280.5,2.6e-19
281.0,1.356e-18
281.5,4.804e-19
282.0,1.48e-18
282.5,3.904e-18
283.0,1.257e-17
283.5,2.053e-17
284.0,3.251e-16
284.5,9.263e-16
285.0,1.831e-15
285.5,9.614e-15
286.0,3.915e-14
286.5,1.762e-13
287.0,5.026e-13
287.5,1.908e-12
288.0,5.005e-12
288.5,1.781e-11
289.0,5.351e-11
289.5,1.78e-10
290.0,5.257e-10
290.5,1.12e-09
291.0,2.51e-09
291.5,7.699e-09
292.0,1.825e-08
292.5,2.838e-08
293.0,6.959e-08
293.5,2.049e-07
294.0,3.69e-07
294.5,4.471e-07
295.0,8.699e-07
295.5,2.287e-06
296.0,4.428e-06
296.5,6.234e-06
297.0,8.498e-06
297.5,2.32e-05
298.0,3.73e-05
298.5,3.822e-05
299.0,8.612e-05
299.5,0.0001503
300.0,0.0001708
300.5,0.0002573
301.0,0.0005029
301.5,0.0008733
302.0,0.0007852
302.5,0.001492
303.0,0.002586
303.5,0.003185
304.0,0.002961
304.5,0.004329
305.0,0.006397
305.5,0.007202
306.0,0.006908
306.5,0.008499
307.0,0.01235
307.5,0.01611
308.0,0.01691
308.5,0.01974
309.0,0.01993
309.5,0.02206
310.0,0.0218
310.5,0.03495
311.0,0.04327
311.5,0.04143
312.0,0.04048
312.5,0.04849
313.0,0.05207
313.5,0.05062
314.0,0.06222
314.5,0.05413
315.0,0.07065
315.5,0.05925
316.0,0.05096
316.5,0.07226
317.0,0.08936
317.5,0.09282
318.0,0.07173
318.5,0.0879
319.0,0.1035
319.5,0.08455
320.0,0.1019
320.5,0.1259
321.0,0.1111
321.5,0.106
322.0,0.1132
322.5,0.09802
323.0,0.09685
323.5,0.1194
324.0,0.1388
324.5,0.1406
325.0,0.1198
325.5,0.1531
326.0,0.1883
326.5,0.1875
327.0,0.1862
327.5,0.1793
328.0,0.1595
328.5,0.1664
329.0,0.1982
329.5,0.224
330.0,0.2251
330.5,0.1795
331.0,0.1823
331.5,0.1844
332.0,0.1983
332.5,0.1955
333.0,0.1941
333.5,0.1749
334.0,0.1785
334.5,0.2051
335.0,0.1921
335.5,0.228
336.0,0.1572
336.5,0.1796
337.0,0.1467
337.5,0.1817
338.0,0.1768
338.5,0.2066
339.0,0.2027
339.5,0.1949
340.0,0.2247
340.5,0.2018
341.0,0.1985
341.5,0.1801
342.0,0.2141
342.5,0.1991
343.0,0.219
343.5,0.2061
344.0,0.1503
344.5,0.1538
345.0,0.2006
345.5,0.2033
346.0,0.1717
346.5,0.1934
347.0,0.2075
347.5,0.1673
348.0,0.1892
348.5,0.1879
349.0,0.1735
349.5,0.1712
350.0,0.2108
350.5,0.2214
351.0,0.1973
351.5,0.1921
352.0,0.2047
352.5,0.1587
353.0,0.1989
353.5,0.2116
354.0,0.2187
354.5,0.2209
355.0,0.2193
355.5,0.1973
356.0,0.2055
356.5,0.1747
357.0,0.1438
357.5,0.1753
358.0,0.1383
358.5,0.1177
359.0,0.164
359.5,0.2084
360.0,0.2199
360.5,0.175
361.0,0.1588
361.5,0.1821
362.0,0.1568
362.5,0.2161
363.0,0.1933
363.5,0.1774
364.0,0.2161
364.5,0.1839
365.0,0.1866
365.5,0.2332
366.0,0.2461
366.5,0.2303
367.0,0.2233
367.5,0.2308
368.0,0.2012
368.5,0.2022
369.0,0.2175
369.5,0.2309
370.0,0.2451
370.5,0.1895
371.0,0.2016
371.5,0.2512
372.0,0.1661
372.5,0.1983
373.0,0.2009
373.5,0.1302
374.0,0.1884
374.5,0.1554
375.0,0.1505
375.5,0.2237
376.0,0.1847
376.5,0.1907
377.0,0.201
377.5,0.2343
378.0,0.2529
378.5,0.238
379.0,0.1956
379.5,0.1779
380.0,0.1841
380.5,0.2221
381.0,0.2216
381.5,0.1749
382.0,0.1547
382.5,0.1313
383.0,0.121
383.5,0.1161
384.0,0.1276
384.5,0.1869
385.0,0.1845
385.5,0.1712
386.0,0.146
386.5,0.191
387.0,0.158
387.5,0.1768
388.0,0.1625
388.5,0.16
389.0,0.172
389.5,0.2074
390.0,0.2073
390.5,0.19
391.0,0.2227
391.5,0.2262
392.0,0.1897
392.5,0.1691
393.0,0.09373
393.5,0.06786
394.0,0.1375
394.5,0.1742
395.0,0.2117
395.5,0.2141
396.0,0.1849
396.5,0.1076
397.0,0.08044
397.5,0.1629
398.0,0.2272
398.5,0.2339
399.0,0.2522
399.5,0.2504
400.0,0.259
401.0,0.2543
402.0,0.2661
403.0,0.2507
404.0,0.2448
405.0,0.2428
406.0,0.2369
407.0,0.2311
408.0,0.2381
409.0,0.2529
410.0,0.2192
411.0,0.2356
412.0,0.251
413.0,0.2428
414.0,0.2438
415.0,0.2425
416.0,0.2447
417.0,0.2367
418.0,0.2304
419.0,0.2315
420.0,0.2286
421.0,0.2371
422.0,0.2235
423.0,0.2165
424.0,0.227
425.0,0.2247
426.0,0.2172
427.0,0.2115
428.0,0.2044
429.0,0.1921
430.0,0.1668
431.0,0.1639
432.0,0.2099
433.0,0.2093
434.0,0.1927
435.0,0.1997
436.0,0.2233
437.0,0.2187
438.0,0.1976
439.0,0.2028
440.0,0.2076
441.0,0.2133
442.0,0.2268
443.0,0.2192
444.0,0.2222
445.0,0.2158
446.0,0.2043
447.0,0.2191
448.0,0.2207
449.0,0.2198
450.0,0.224
451.0,0.2305
452.0,0.2203
453.0,0.2056
454.0,0.213
455.0,0.2126
456.0,0.2159
457.0,0.2176
458.0,0.2085
459.0,0.2057
460.0,0.2046
461.0,0.2076
462.0,0.2077
463.0,0.2048
464.0,0.2001
465.0,0.1961
466.0,0.1965
467.0,0.1914
468.0,0.192
469.0,0.1913
470.0,0.1838
471.0,0.1823
472.0,0.1906
473.0,0.1867
474.0,0.1855
475.0,0.1856
476.0,0.1786
477.0,0.1776
478.0,0.1809
479.0,0.1783
480.0,0.1772
481.0,0.1788
482.0,0.1783
483.0,0.1748
484.0,0.17
485.0,0.1608
486.0,0.1396
487.0,0.1452
488.0,0.1581
489.0,0.1573
490.0,0.1642
491.0,0.1602
492.0,0.1501
493.0,0.1538
494.0,0.1542
495.0,0.1544
496.0,0.1542
497.0,0.1554
498.0,0.1469
499.0,0.1476
500.0,0.142
501.0,0.1382
502.0,0.1351
503.0,0.1394
504.0,0.1347
505.0,0.1385
506.0,0.142
507.0,0.1341
508.0,0.1291
509.0,0.1318
510.0,0.1302
511.0,0.1328
512.0,0.1333
513.0,0.1252
514.0,0.1234
515.0,0.1213
516.0,0.1201
517.0,0.106
518.0,0.1106
519.0,0.1152
520.0,0.1184
521.0,0.1186
522.0,0.1179
523.0,0.1149
524.0,0.1181
525.0,0.1186
526.0,0.1125
527.0,0.1051
528.0,0.1103
529.0,0.1154
530.0,0.113
531.0,0.1138
532.0,0.1091
533.0,0.1052
534.0,0.1076
535.0,0.1092
536.0,0.1095
537.0,0.1044
538.0,0.1055
539.0,0.104
540.0,0.09905
541.0,0.09898
542.0,0.1013
543.0,0.09953
544.0,0.1006
545.0,0.09972
546.0,0.09946
547.0,0.09872
548.0,0.09686
549.0,0.09652
550.0,0.09701
551.0,0.09517
552.0,0.09517
553.0,0.09282
554.0,0.0944
555.0,0.09395
556.0,0.09206
557.0,0.08854
558.0,0.08721
559.0,0.08494
560.0,0.08536
561.0,0.08582
562.0,0.08456
563.0,0.08624
564.0,0.08331
565.0,0.08203
566.0,0.08025
567.0,0.08119
568.0,0.07989
569.0,0.07741
570.0,0.07689
571.0,0.07592
572.0,0.07717
573.0,0.0775
574.0,0.0768
575.0,0.07491
576.0,0.07376
577.0,0.07411
578.0,0.07259
579.0,0.07248
580.0,0.07347
581.0,0.07343
582.0,0.07438
583.0,0.07418
584.0,0.07444
585.0,0.07221
586.0,0.07025
587.0,0.07129
588.0,0.06909
589.0,0.0607
590.0,0.06312
591.0,0.06648
592.0,0.06516
593.0,0.06574
594.0,0.06481
595.0,0.06275
596.0,0.06492
597.0,0.06379
598.0,0.06322
599.0,0.06286
600.0,0.06259
601.0,0.06172
602.0,0.06094
603.0,0.06158
604.0,0.06223
605.0,0.06157
606.0,0.061
607.0,0.06129
608.0,0.06029
609.0,0.06007
610.0,0.05934
611.0,0.05936
612.0,0.05888
613.0,0.05783
614.0,0.05674
615.0,0.05769
616.0,0.05551
617.0,0.05511
618.0,0.05695
619.0,0.05608
620.0,0.05614
621.0,0.05589
622.0,0.05493
623.0,0.05378
624.0,0.05256
625.0,0.05219
626.0,0.05271
627.0,0.053
628.0,0.04894
629.0,0.05108
630.0,0.04962
631.0,0.05055
632.0,0.04971
633.0,0.05102
634.0,0.05032
635.0,0.05084
636.0,0.04992
637.0,0.05049
638.0,0.05074
639.0,0.04993
640.0,0.04919
641.0,0.04891
642.0,0.04847
643.0,0.0489
644.0,0.04852
645.0,0.04833
646.0,0.04691
647.0,0.04605
648.0,0.04582
649.0,0.04471
650.0,0.04479
651.0,0.0465
652.0,0.04421
653.0,0.04542
654.0,0.0447
655.0,0.04275
656.0,0.03773
657.0,0.03857
658.0,0.04306
659.0,0.04317
660.0,0.04313
661.0,0.04321
662.0,0.04308
663.0,0.04204
664.0,0.04236
665.0,0.04219
666.0,0.04202
667.0,0.04179
668.0,0.04162
669.0,0.04205
670.0,0.04166
671.0,0.04145
672.0,0.04094
673.0,0.0414
674.0,0.04103
675.0,0.04045
676.0,0.04053
677.0,0.03996
678.0,0.0399
679.0,0.03907
680.0,0.0392
681.0,0.03875
682.0,0.03851
683.0,0.03825
684.0,0.03786
685.0,0.03798
686.0,0.03758
687.0,0.02388
688.0,0.02828
689.0,0.02825
690.0,0.02963
691.0,0.03122
692.0,0.03236
693.0,0.03191
694.0,0.03143
695.0,0.0327
696.0,0.03257
697.0,0.03467
698.0,0.03397
699.0,0.03285
700.0,0.03229
701.0,0.0318
702.0,0.03192
703.0,0.03182
704.0,0.03275
705.0,0.03263
706.0,0.03248
707.0,0.03236
708.0,0.03227
709.0,0.03219
710.0,0.03201
711.0,0.03187
712.0,0.03168
713.0,0.03119
714.0,0.03113
715.0,0.02995
716.0,0.02982
717.0,0.0253
718.0,0.02293
719.0,0.02072
720.0,0.0217
721.0,0.02413
722.0,0.02794
723.0,0.02562
724.0,0.02271
725.0,0.02222
726.0,0.02328
727.0,0.02349
728.0,0.02186
729.0,0.02271
730.0,0.02403
731.0,0.02277
732.0,0.02443
733.0,0.02592
734.0,0.02645
735.0,0.02576
736.0,0.02561
737.0,0.02558
738.0,0.02595
739.0,0.0253
740.0,0.02586
741.0,0.0255
742.0,0.02541
743.0,0.02592
744.0,0.02572
745.0,0.02561
746.0,0.0256
747.0,0.02554
748.0,0.02535
749.0,0.02493
750.0,0.0248
751.0,0.02445
752.0,0.02444
753.0,0.02444
754.0,0.02437
755.0,0.02413
756.0,0.02401
757.0,0.02394
758.0,0.02352
759.0,0.02289
760.0,0.003273
761.0,0.001667
762.0,0.01075
763.0,0.005047
764.0,0.007782
765.0,0.01058
766.0,0.01326
767.0,0.01703
768.0,0.01989
769.0,0.02029
770.0,0.02097
771.0,0.02109
772.0,0.02104
773.0,0.02108
774.0,0.02087
775.0,0.02062
776.0,0.02078
777.0,0.0204
778.0,0.02017
779.0,0.02008
780.0,0.01988
781.0,0.01981
782.0,0.01984
783.0,0.01941
784.0,0.01941
785.0,0.01918
786.0,0.0193
787.0,0.01885
788.0,0.01851
789.0,0.0184
790.0,0.01777
791.0,0.0179
792.0,0.01768
793.0,0.01731
794.0,0.01759
795.0,0.01779
796.0,0.01708
797.0,0.01704
798.0,0.01753
799.0,0.01732
800.0,0.01692
801.0,0.01677
802.0,0.01664
803.0,0.01643
804.0,0.01639
805.0,0.01628
806.0,0.01669
807.0,0.0164
808.0,0.01635
809.0,0.01594
810.0,0.01571
811.0,0.01565
812.0,0.01507
813.0,0.01464
814.0,0.01261
815.0,0.01247
816.0,0.01143
817.0,0.01162
818.0,0.01111
819.0,0.01257
820.0,0.0117
821.0,0.01392
822.0,0.0134
823.0,0.008602
824.0,0.01284
825.0,0.01339
826.0,0.01275
827.0,0.0135
828.0,0.01114
829.0,0.01252
830.0,0.01228
831.0,0.01228
832.0,0.0118
833.0,0.01268
834.0,0.0121
835.0,0.01339
836.0,0.01267
837.0,0.01331
838.0,0.01281
839.0,0.013
840.0,0.01324
841.0,0.01298
842.0,0.01297
843.0,0.01293
844.0,0.01268
845.0,0.01307
846.0,0.01295
847.0,0.01266
848.0,0.01252
849.0,0.01211
850.0,0.01155
851.0,0.01216
852.0,0.01202
853.0,0.01152
854.0,0.009899
855.0,0.01084
856.0,0.01179
857.0,0.01202
858.0,0.01188
859.0,0.01184
860.0,0.01181
861.0,0.0117
862.0,0.01184
863.0,0.01207
864.0,0.01142
865.0,0.01128
866.0,0.0101
867.0,0.01049
868.0,0.01137
869.0,0.01109
870.0,0.01136
871.0,0.01116
872.0,0.01107
873.0,0.01101
874.0,0.01082
875.0,0.01056
876.0,0.01062
877.0,0.01068
878.0,0.01075
879.0,0.01054
880.0,0.01027
881.0,0.01007
882.0,0.01025
883.0,0.01025
884.0,0.01015
885.0,0.01018
886.0,0.009647
887.0,0.009724
888.0,0.009816
889.0,0.009903
890.0,0.009756
891.0,0.009711
892.0,0.009373
893.0,0.009003
894.0,0.00859
895.0,0.008008
896.0,0.007419
897.0,0.006208
898.0,0.006837
899.0,0.004966
900.0,0.007
901.0,0.005246
902.0,0.006281
903.0,0.00629
904.0,0.008179
905.0,0.00782
906.0,0.007237
907.0,0.005656
908.0,0.005779
909.0,0.006336
910.0,0.005451
911.0,0.005853
912.0,0.00614
913.0,0.005466
914.0,0.005399
915.0,0.005911
916.0,0.004851
917.0,0.00639
918.0,0.004962
919.0,0.006463
920.0,0.006527
921.0,0.00684
922.0,0.005979
923.0,0.006553
924.0,0.006098
925.0,0.005918
926.0,0.005984
927.0,0.006771
928.0,0.00469
929.0,0.00421
930.0,0.003172
931.0,0.002973
932.0,0.002038
933.0,0.001606
934.0,0.0008191
935.0,0.001639
936.0,0.0009668
937.0,0.0009759
938.0,0.001222
939.0,0.002783
940.0,0.003433
941.0,0.002485
942.0,0.00292
943.0,0.001802
944.0,0.001911
945.0,0.002522
946.0,0.001171
947.0,0.00251
948.0,0.001764
949.0,0.003485
950.0,0.0008163
951.0,0.003404
952.0,0.001663
953.0,0.00222
954.0,0.002811
955.0,0.002247
956.0,0.002157
957.0,0.001636
958.0,0.003196
959.0,0.002435
960.0,0.002767
961.0,0.003153
962.0,0.002949
963.0,0.00347
964.0,0.003122
965.0,0.003432
966.0,0.00342
967.0,0.003384
968.0,0.004773
969.0,0.005003
970.0,0.004507
971.0,0.005276
972.0,0.004982
973.0,0.004213
974.0,0.003954
975.0,0.004111
976.0,0.003852
977.0,0.004478
978.0,0.004195
979.0,0.004422
980.0,0.00409
981.0,0.005048
982.0,0.004767
983.0,0.00453
984.0,0.005186
985.0,0.004698
986.0,0.005261
987.0,0.005117
988.0,0.005085
989.0,0.005199
990.0,0.005021
991.0,0.005168
992.0,0.00518
993.0,0.005025
994.0,0.005144
995.0,0.005122
996.0,0.005076
997.0,0.005066
998.0,0.005022
999.0,0.004987
1000.0,0.004927
1001.0,0.004977
1002.0,0.004798
1003.0,0.00485
1004.0,0.004706
1005.0,0.004525
1006.0,0.004678
1007.0,0.004761
1008.0,0.004714
1009.0,0.004666
1010.0,0.004626
1011.0,0.004667
1012.0,0.004604
1013.0,0.004622
1014.0,0.004574
1015.0,0.004526
1016.0,0.004487
1017.0,0.00448
1018.0,0.004448
1019.0,0.004328
1020.0,0.004389
1021.0,0.004367
1022.0,0.004313
1023.0,0.004343
1024.0,0.004262
1025.0,0.004311
1026.0,0.004274
1027.0,0.004248
1028.0,0.004223
1029.0,0.004158
1030.0,0.004174
1031.0,0.00414
1032.0,0.004113
1033.0,0.004035
1034.0,0.00402
1035.0,0.004017
1036.0,0.004021
1037.0,0.003941
1038.0,0.003944
1039.0,0.003927
1040.0,0.003897
1041.0,0.003897
1042.0,0.003855
1043.0,0.003829
1044.0,0.003828
1045.0,0.003761
1046.0,0.003705
1047.0,0.003724
1048.0,0.003731
1049.0,0.003704
1050.0,0.003672
1051.0,0.003653
1052.0,0.003624
1053.0,0.003582
1054.0,0.003576
1055.0,0.003564
1056.0,0.003536
1057.0,0.003511
1058.0,0.003412
1059.0,0.003403
1060.0,0.003385
1061.0,0.003367
1062.0,0.003371
1063.0,0.003326
1064.0,0.003354
1065.0,0.003315
1066.0,0.003239
1067.0,0.003268
1068.0,0.003183
1069.0,0.003074
1070.0,0.003164
1071.0,0.003209
1072.0,0.003155
1073.0,0.0031
1074.0,0.003177
1075.0,0.002987
1076.0,0.00315
1077.0,0.00307
1078.0,0.002997
1079.0,0.003068
1080.0,0.002985
1081.0,0.002875
1082.0,0.002928
1083.0,0.002929
1084.0,0.002828
1085.0,0.002945
1086.0,0.002634
1087.0,0.002745
1088.0,0.002868
1089.0,0.002752
1090.0,0.002662
1091.0,0.002822
1092.0,0.002809
1093.0,0.002309
1094.0,0.002546
1095.0,0.002406
1096.0,0.002275
1097.0,0.002699
1098.0,0.002221
1099.0,0.002318
1100.0,0.002114
1101.0,0.002143
1102.0,0.002026
1103.0,0.001988
1104.0,0.001986
1105.0,0.00221
1106.0,0.001597
1107.0,0.002065
1108.0,0.001688
1109.0,0.001687
1110.0,0.00202
1111.0,0.001273
1112.0,0.001658
1113.0,0.0009718
1114.0,0.001099
1115.0,0.0008847
1116.0,0.0006778
1117.0,0.0002184
1118.0,0.0007426
1119.0,0.0003349
1120.0,0.00043
1121.0,0.00059
1122.0,0.0002227
1123.0,0.0003801
1124.0,0.0003144
1125.0,0.0004225
1126.0,0.00013
1127.0,0.0004791
1128.0,0.0002669
1129.0,0.0002847
1130.0,0.0001785
1131.0,0.0009864
1132.0,0.0007429
1133.0,0.0004387
1134.0,9.666e-05
1135.0,3.447e-05
1136.0,0.0003528
1137.0,0.0009461
1138.0,0.0006326
1139.0,0.001006
1140.0,0.0008122
1141.0,0.0005913
1142.0,0.0006924
1143.0,0.001035
1144.0,0.0003108
1145.0,0.0004046
1146.0,0.0004382
1147.0,0.0001361
1148.0,0.0008614
1149.0,0.0006611
1150.0,0.0003302
1151.0,0.0005995
1152.0,0.0007611
1153.0,0.0007387
1154.0,0.0003784
1155.0,0.001001
1156.0,0.0008821
1157.0,0.001007
1158.0,0.0009914
1159.0,0.001085
1160.0,0.0008987
1161.0,0.001149
1162.0,0.001146
1163.0,0.001631
1164.0,0.001357
1165.0,0.00126
1166.0,0.001249
1167.0,0.001375
1168.0,0.001387
1169.0,0.001427
1170.0,0.001564
1171.0,0.001512
1172.0,0.00154
1173.0,0.001544
1174.0,0.001037
1175.0,0.001501
1176.0,0.001668
1177.0,0.001583
1178.0,0.001129
1179.0,0.001666
1180.0,0.00145
1181.0,0.001501
1182.0,0.0009702
1183.0,0.001475
1184.0,0.001354
1185.0,0.001292
1186.0,0.001575
1187.0,0.001482
1188.0,0.0009742
1189.0,0.001363
1190.0,0.001515
1191.0,0.001419
1192.0,0.00153
1193.0,0.00145
1194.0,0.001499
1195.0,0.001403
1196.0,0.001338
1197.0,0.001497
1198.0,0.001346
1199.0,0.001113
1200.0,0.001405
1201.0,0.001341
1202.0,0.00133
1203.0,0.001323
1204.0,0.001122
1205.0,0.001357
1206.0,0.001522
1207.0,0.00131
1208.0,0.001294
1209.0,0.001316
1210.0,0.001376
1211.0,0.001294
1212.0,0.00127
1213.0,0.001437
1214.0,0.001298
1215.0,0.001265
1216.0,0.001418
1217.0,0.00137
1218.0,0.001397
1219.0,0.001373
1220.0,0.00139
1221.0,0.001403
1222.0,0.001356
1223.0,0.001338
1224.0,0.001323
1225.0,0.001376
1226.0,0.001383
1227.0,0.001258
1228.0,0.001383
1229.0,0.001371
1230.0,0.00134
1231.0,0.001381
1232.0,0.001368
1233.0,0.001308
1234.0,0.001368
1235.0,0.001354
1236.0,0.00136
1237.0,0.001334
1238.0,0.001347
1239.0,0.001325
1240.0,0.001327
1241.0,0.001314
1242.0,0.001308
1243.0,0.001293
1244.0,0.001298
1245.0,0.001299
1246.0,0.001288
1247.0,0.001278
1248.0,0.001272
1249.0,0.001273
1250.0,0.00126
1251.0,0.001239
1252.0,0.001237
1253.0,0.00122
1254.0,0.001202
1255.0,0.001223
1256.0,0.00118
1257.0,0.001168
1258.0,0.001191
1259.0,0.001136
1260.0,0.00114
1261.0,0.001063
1262.0,0.001023
1263.0,0.001022
1264.0,0.0009293
1265.0,0.00101
1266.0,0.0009621
1267.0,0.0009806
1268.0,0.0009198
1269.0,0.0005272
1270.0,0.0009674
1271.0,0.001032
1272.0,0.001033
1273.0,0.001018
1274.0,0.001019
1275.0,0.001032
1276.0,0.001041
1277.0,0.001046
1278.0,0.001067
1279.0,0.001054
1280.0,0.001037
1281.0,0.0009883
1282.0,0.0009522
1283.0,0.001022
1284.0,0.001042
1285.0,0.001046
1286.0,0.001059
1287.0,0.001036
1288.0,0.001033
1289.0,0.0009915
1290.0,0.001018
1291.0,0.00103
1292.0,0.000953
1293.0,0.001
1294.0,0.000989
1295.0,0.0009797
1296.0,0.0009248
1297.0,0.0008648
1298.0,0.0009404
1299.0,0.0009835
1300.0,0.0008063
1301.0,0.0008338
1302.0,0.000927
1303.0,0.000789
1304.0,0.0006527
1305.0,0.000896
1306.0,0.0008935
1307.0,0.0006628
1308.0,0.0007777
1309.0,0.0008779
1310.0,0.0006427
1311.0,0.0007343
1312.0,0.0007121
1313.0,0.0006925
1314.0,0.0006054
1315.0,0.0005975
1316.0,0.0007113
1317.0,0.0006649
1318.0,0.0007315
1319.0,0.0005458
1320.0,0.0005247
1321.0,0.0006255
1322.0,0.0006306
1323.0,0.0004513
1324.0,0.0005258
1325.0,0.0006802
1326.0,0.0005674
1327.0,0.0005352
1328.0,0.0004496
1329.0,0.0003226
1330.0,0.0004348
1331.0,0.0002428
1332.0,0.0002515
1333.0,0.0003652
1334.0,0.0003012
1335.0,0.0004339
1336.0,0.0003297
1337.0,0.0002854
1338.0,0.0003115
1339.0,0.0003097
1340.0,0.0002988
1341.0,0.0002894
1342.0,0.0003052
1343.0,0.0001946
1344.0,0.0001097
1345.0,0.0001643
1346.0,7.526e-05
1347.0,7.628e-05
1348.0,4.271e-06
1349.0,1.601e-05
1350.0,1.664e-05
1351.0,3.827e-06
1352.0,1.006e-06
1353.0,5.023e-08
1354.0,1.735e-07
1355.0,1.384e-09
1356.0,2.429e-08
1357.0,3.694e-08
1358.0,1.625e-09
1359.0,2.046e-10
1360.0,7.396e-10
1361.0,8.268e-13
1362.0,2.262e-15
1363.0,9.945e-10
1364.0,4.105e-10
1365.0,7.896e-16
1366.0,4.313e-09
1367.0,1.76e-09
1368.0,6.097e-18
1369.0,1.512e-10
1370.0,7.446e-11
1371.0,4.22e-12
1372.0,9.54e-10
1373.0,1.927e-08
1374.0,8.972e-08
1375.0,1.631e-07
1376.0,1.463e-07
1377.0,6.66e-08
1378.0,6.601e-07
1379.0,2.776e-08
1380.0,3.993e-08
1381.0,1.036e-09
1382.0,8.36e-10
1383.0,1.249e-11
1384.0,1.638e-10
1385.0,7.836e-10
1386.0,7.37e-10
1387.0,8.972e-08
1388.0,1.754e-09
1389.0,3.048e-07
1390.0,2.614e-07
1391.0,1.734e-07
1392.0,1.116e-08
1393.0,5.93e-08
1394.0,3.051e-08
1395.0,2.227e-10
1396.0,1.076e-12
1397.0,2.33e-08
1398.0,7.004e-07
1399.0,4.412e-07
1400.0,4.601e-13
1401.0,1.909e-12
1402.0,1.237e-06
1403.0,1.554e-06
1404.0,4.655e-07
1405.0,1.054e-10
1406.0,1.215e-06
1407.0,1.051e-07
1408.0,9.86e-07
1409.0,3.252e-07
1410.0,2.6e-07
1411.0,1.333e-06
1412.0,1.807e-06
1413.0,2.027e-05
1414.0,2.027e-07
1415.0,9.646e-08
1416.0,3.456e-05
1417.0,9.579e-06
1418.0,1.09e-05
1419.0,1.597e-06
1420.0,6.508e-06
1421.0,7.04e-06
1422.0,4.525e-05
1423.0,7.959e-06
1424.0,1.533e-05
1425.0,2.282e-05
1426.0,2.635e-05
1427.0,5.119e-05
1428.0,3.165e-06
1429.0,3.686e-05
1430.0,6.633e-05
1431.0,7.355e-05
1432.0,2.446e-06
1433.0,4.438e-05
1434.0,2.137e-05
1435.0,2.063e-05
1436.0,4.244e-05
1437.0,3.187e-05
1438.0,1.254e-05
1439.0,5.915e-05
1440.0,4.33e-05
1441.0,3.165e-05
1442.0,3.533e-05
1443.0,4.589e-05
1444.0,6.568e-05
1445.0,4.927e-05
1446.0,2.073e-05
1447.0,3.359e-05
1448.0,0.0001334
1449.0,0.0001127
1450.0,2.431e-05
1451.0,9.155e-06
1452.0,6.308e-05
1453.0,8.532e-05
1454.0,0.0001602
1455.0,6.788e-05
1456.0,9.294e-05
1457.0,0.0001311
1458.0,0.00016
1459.0,0.0001924
1460.0,9.123e-05
1461.0,9.417e-05
1462.0,0.0001465
1463.0,4.098e-05
1464.0,0.0001789
1465.0,0.0001009
1466.0,6.401e-05
1467.0,3.107e-05
1468.0,7.706e-05
1469.0,9.771e-05
1470.0,4.391e-05
1471.0,1.46e-05
1472.0,4.161e-05
1473.0,6.733e-05
1474.0,0.0001041
1475.0,0.0002172
1476.0,6.699e-05
1477.0,6.695e-05
1478.0,6.223e-05
1479.0,0.00013
1480.0,5.655e-05
1481.0,0.0001225
1482.0,5.531e-05
1483.0,0.0001651
1484.0,0.0001531
1485.0,0.000133
1486.0,0.00013
1487.0,5.344e-05
1488.0,0.0001019
1489.0,0.0002207
1490.0,0.0002012
1491.0,0.000233
1492.0,0.0001842
1493.0,0.0002062
1494.0,0.0002374
1495.0,0.0002068
1496.0,0.0001913
1497.0,0.0002772
1498.0,0.0002175
1499.0,0.0002602
1500.0,0.0003062
1501.0,0.0003242
1502.0,0.0002672
1503.0,0.0002206
1504.0,0.0001706
1505.0,0.0002111
1506.0,0.0003212
1507.0,0.0003059
1508.0,0.0002892
1509.0,0.0002105
1510.0,0.0003311
1511.0,0.0003179
1512.0,0.0003146
1513.0,0.0002841
1514.0,0.000262
1515.0,0.0003219
1516.0,0.0003055
1517.0,0.0002968
1518.0,0.000295
1519.0,0.000287
1520.0,0.0003117
1521.0,0.000335
1522.0,0.0003157
1523.0,0.0003385
1524.0,0.0003267
1525.0,0.0003095
1526.0,0.0003139
1527.0,0.0003101
1528.0,0.0003325
1529.0,0.0003141
1530.0,0.0003074
1531.0,0.0003154
1532.0,0.0003288
1533.0,0.0003282
1534.0,0.0003215
1535.0,0.0003186
1536.0,0.0003243
1537.0,0.0003161
1538.0,0.0003192
1539.0,0.0003128
1540.0,0.0003133
1541.0,0.0003147
1542.0,0.0003102
1543.0,0.0003153
1544.0,0.0003105
1545.0,0.0003162
1546.0,0.0003103
1547.0,0.0003054
1548.0,0.0003047
1549.0,0.0003068
1550.0,0.0003039
1551.0,0.0003053
1552.0,0.000302
1553.0,0.0002997
1554.0,0.0002963
1555.0,0.0002964
1556.0,0.0002955
1557.0,0.0002983
1558.0,0.0002959
1559.0,0.0002934
1560.0,0.0002947
1561.0,0.0002961
1562.0,0.0002916
1563.0,0.0002887
1564.0,0.0002893
1565.0,0.0002893
1566.0,0.0002848
1567.0,0.0002847
1568.0,0.0002811
1569.0,0.0002823
1570.0,0.0002843
1571.0,0.0002859
1572.0,0.0002836
1573.0,0.000281
1574.0,0.0002704
1575.0,0.0002665
1576.0,0.0002617
1577.0,0.0002544
1578.0,0.0002665
1579.0,0.0002682
1580.0,0.00027
1581.0,0.0002654
1582.0,0.0002595
1583.0,0.0002601
1584.0,0.0002644
1585.0,0.0002667
1586.0,0.0002629
1587.0,0.0002581
1588.0,0.0002503
1589.0,0.000242
1590.0,0.0002469
1591.0,0.0002524
1592.0,0.0002592
1593.0,0.0002628
1594.0,0.0002616
1595.0,0.0002576
1596.0,0.0002494
1597.0,0.0002551
1598.0,0.0002582
1599.0,0.0002547
1600.0,0.0002525
1601.0,0.0002483
1602.0,0.0002484
1603.0,0.0002504
1604.0,0.0002478
1605.0,0.0002471
1606.0,0.0002437
1607.0,0.0002452
1608.0,0.0002444
1609.0,0.0002374
1610.0,0.0002319
1611.0,0.0002354
1612.0,0.0002377
1613.0,0.0002374
1614.0,0.0002369
1615.0,0.0002311
1616.0,0.000227
1617.0,0.0002309
1618.0,0.0002343
1619.0,0.0002293
1620.0,0.000224
1621.0,0.000226
1622.0,0.000229
1623.0,0.0002318
1624.0,0.0002285
1625.0,0.000227
1626.0,0.000227
1627.0,0.0002282
1628.0,0.000227
1629.0,0.0002245
1630.0,0.0002226
1631.0,0.0002207
1632.0,0.0002197
1633.0,0.0002123
1634.0,0.0002169
1635.0,0.000213
1636.0,0.0002109
1637.0,0.0002082
1638.0,0.0001949
1639.0,0.0002027
1640.0,0.0001928
1641.0,0.0002002
1642.0,0.0002038
1643.0,0.0001909
1644.0,0.0002028
1645.0,0.000196
1646.0,0.0001903
1647.0,0.0002045
1648.0,0.0001888
1649.0,0.0001984
1650.0,0.0001994
1651.0,0.0001833
1652.0,0.0001963
1653.0,0.0001978
1654.0,0.0001859
1655.0,0.0001968
1656.0,0.0001928
1657.0,0.0001939
1658.0,0.0001961
1659.0,0.0001941
1660.0,0.0001953
1661.0,0.0001937
1662.0,0.0001875
1663.0,0.0001919
1664.0,0.0001895
1665.0,0.0001777
1666.0,0.000142
1667.0,0.0001751
1668.0,0.0001819
1669.0,0.0001826
1670.0,0.0001855
1671.0,0.0001796
1672.0,0.0001771
1673.0,0.0001809
1674.0,0.0001762
1675.0,0.000173
1676.0,0.0001739
1677.0,0.0001731
1678.0,0.0001673
1679.0,0.0001711
1680.0,0.0001636
1681.0,0.0001579
1682.0,0.0001668
1683.0,0.0001699
1684.0,0.0001556
1685.0,0.000171
1686.0,0.0001701
1687.0,0.0001626
1688.0,0.0001682
1689.0,0.0001659
1690.0,0.0001648
1691.0,0.0001483
1692.0,0.0001631
1693.0,0.0001678
1694.0,0.0001605
1695.0,0.0001651
1696.0,0.0001647
1697.0,0.0001356
1698.0,0.0001623
1699.0,0.0001596
1700.0,0.0001546
1702.0,0.0001571
1705.0,0.0001507
1710.0,0.0001406
1715.0,0.0001392
1720.0,0.0001362
1725.0,0.0001249
1730.0,0.0001221
1735.0,0.0001125
1740.0,0.0001128
1745.0,0.0001039
1750.0,0.000111
1755.0,9.988e-05
1760.0,0.000104
1765.0,8.19e-05
1770.0,8.758e-05
1775.0,6.738e-05
1780.0,5.595e-05
1785.0,4e-05
1790.0,4.686e-05
1795.0,2.09e-05
1800.0,1.391e-05
1805.0,5.142e-06
1810.0,3.263e-06
1815.0,8.997e-07
1820.0,2.187e-07
1825.0,2.865e-07
1830.0,6.765e-10
1835.0,1.025e-09
1840.0,5.969e-12
1845.0,6.389e-10
1850.0,2.883e-10
1855.0,2.753e-11
1860.0,1.581e-09
1865.0,2.204e-09
1870.0,1.203e-14
1875.0,2.173e-14
1880.0,1.165e-08
1885.0,6.196e-09
1890.0,3.419e-08
1895.0,1.979e-08
1900.0,8.393e-11
1905.0,5.716e-11
1910.0,2.775e-09
1915.0,2.703e-09
1920.0,7.177e-08
1925.0,1.701e-07
1930.0,9.771e-08
1935.0,7.708e-07
1940.0,7.666e-07
1945.0,3.35e-06
1950.0,6.797e-06
1955.0,6.017e-06
1960.0,1.113e-05
1965.0,1.684e-05
1970.0,2.454e-05
1975.0,2.81e-05
1980.0,2.816e-05
1985.0,3.043e-05
1990.0,3.134e-05
1995.0,3.313e-05
2000.0,3.48e-05
2005.0,2.851e-05
2010.0,4.22e-05
2015.0,3.199e-05
2020.0,3.424e-05
2025.0,3.727e-05
2030.0,3.36e-05
2035.0,3.663e-05
2040.0,3.437e-05
2045.0,3.523e-05
2050.0,3.55e-05
2055.0,3.358e-05
2060.0,3.209e-05
2065.0,3.243e-05
2070.0,3.169e-05
2075.0,3.219e-05
2080.0,3.104e-05
2085.0,3.058e-05
2090.0,3.067e-05
2095.0,2.943e-05
2100.0,2.703e-05
2105.0,2.919e-05
2110.0,2.765e-05
2115.0,2.816e-05
2120.0,2.611e-05
2125.0,2.632e-05
2130.0,2.647e-05
2135.0,2.647e-05
2140.0,2.646e-05
2145.0,2.595e-05
2150.0,2.397e-05
2155.0,2.377e-05
2160.0,2.332e-05
2165.0,2.099e-05
2170.0,2.225e-05
2175.0,2.146e-05
2180.0,2.191e-05
2185.0,1.924e-05
2190.0,2.074e-05
2195.0,2.036e-05
2200.0,1.755e-05
2205.0,1.845e-05
2210.0,2.001e-05
2215.0,1.887e-05
2220.0,1.915e-05
2225.0,1.835e-05
2230.0,1.829e-05
2235.0,1.762e-05
2240.0,1.724e-05
2245.0,1.632e-05
2250.0,1.652e-05
2255.0,1.515e-05
2260.0,1.471e-05
2265.0,1.498e-05
2270.0,1.386e-05
2275.0,1.351e-05
2280.0,1.412e-05
2285.0,1.301e-05
2290.0,1.29e-05
2295.0,1.244e-05
2300.0,1.161e-05
2305.0,1.162e-05
2310.0,1.281e-05
2315.0,1.122e-05
2320.0,9.603e-06
2325.0,1.081e-05
2330.0,1.072e-05
2335.0,1.093e-05
2340.0,8.099e-06
2345.0,9.226e-06
2350.0,7.042e-06
2355.0,8.302e-06
2360.0,8.815e-06
2365.0,8.623e-06
2370.0,4.675e-06
2375.0,7.372e-06
2380.0,6.963e-06
2385.0,4.739e-06
2390.0,5.719e-06
2395.0,6.337e-06
2400.0,6.969e-06
2405.0,5.051e-06
2410.0,5.019e-06
2415.0,3.889e-06
2420.0,3.724e-06
2425.0,4.762e-06
2430.0,6.708e-06
2435.0,1.853e-06
2440.0,6.386e-06
2445.0,2.659e-06
2450.0,1.614e-06
2455.0,3.23e-06
2460.0,4.453e-06
2465.0,3.007e-06
2470.0,1.922e-06
2475.0,1.857e-06
2480.0,8.286e-07
2485.0,5.288e-07
2490.0,2.979e-07
2495.0,2.567e-07
2500.0,6.59e-07
2505.0,1.275e-07
2510.0,1.893e-07
2515.0,3.897e-08
2520.0,2.176e-08
2525.0,2.454e-09
2530.0,1.698e-11
2535.0,3.755e-12
2540.0,8.907e-12
2545.0,6.907e-16
2550.0,2.8e-18
2555.0,1.344e-14
2560.0,4.033e-16
2565.0,9.029000000000001e-20
2570.0,2.688e-24
2575.0,1.701e-34
2580.0,1.773e-28
2585.0,3.706e-42
2590.0,2.313e-38
2595.0,4.499e-40
2600.0,3.7040000000000003e-35
2605.0,4.0950000000000004e-42
2610.0,1.4089999999999998e-41
2615.0,1.4009999999999999e-45
2620.0,1.2420000000000001e-35
2625.0,2.2740000000000001e-35
2630.0,0.0
2635.0,1.184e-21
2640.0,2.563e-22
2645.0,1.117e-24
2650.0,1.113e-25
2655.0,1.338e-34
2660.0,1.127e-31
2665.0,1.121e-44
2670.0,0.0
2675.0,5.464999999999999e-44
2680.0,2.285e-30
2685.0,2.183e-31
2690.0,8.166000000000001e-31
2695.0,3.203e-33
2700.0,9.332e-29
2705.0,2.6460000000000004e-26
2710.0,2.107e-31
2715.0,2.661e-29
2720.0,0.0
2725.0,5.958e-27
2730.0,1.737e-24
2735.0,1.9810000000000003e-26
2740.0,3.5780000000000004e-32
2745.0,4.613e-27
2750.0,2.585e-26
2755.0,4.16e-28
2760.0,6.232e-23
2765.0,2.925e-29
2770.0,1.4380000000000002e-26
2775.0,1.7749999999999998e-23
2780.0,8.262000000000001e-21
2785.0,3.1020000000000004e-20
2790.0,7.072e-18
2795.0,1.556e-18
2800.0,4.967e-15
2805.0,9.286e-17
2810.0,3.724e-13
2815.0,1.111e-13
2820.0,1.357e-15
2825.0,1.191e-11
2830.0,2.59e-10
2835.0,3.566e-15
2840.0,7.631e-12
2845.0,2.644e-09
2850.0,4.57e-11
2855.0,1.826e-11
2860.0,9.496e-10
2865.0,7.007e-09
2870.0,1.775e-10
2875.0,1.707e-08
2880.0,1.075e-08
2885.0,1.772e-08
2890.0,7.528e-09
2895.0,1.289e-07
2900.0,3.583e-08
2905.0,4.138e-09
2910.0,1.315e-07
2915.0,5.568e-08
2920.0,1.385e-07
2925.0,4.925e-08
2930.0,2.997e-07
2935.0,3.308e-07
2940.0,7.364e-08
2945.0,6.321e-08
2950.0,2.565e-07
2955.0,1.138e-07
2960.0,2.265e-07
2965.0,3.845e-07
2970.0,1.492e-08
2975.0,3.785e-08
2980.0,5.898e-08
2985.0,3.494e-07
2990.0,5.31e-07
2995.0,2.005e-07
3000.0,3.826e-07
3005.0,1.295e-07
3010.0,3.348e-07
3015.0,2.592e-07
3020.0,2.324e-08
3025.0,3.581e-07
3030.0,2.818e-07
3035.0,1.066e-07
3040.0,8.326e-08
3045.0,1.795e-07
3050.0,4.044e-08
3055.0,9.867e-09
3060.0,2.806e-07
3065.0,1.182e-07
3070.0,6.624e-08
3075.0,2.618e-07
3080.0,1.516e-07
3085.0,6.663e-08
3090.0,9.078e-08
3095.0,2.221e-08
3100.0,1.825e-07
3105.0,3.388e-08
3110.0,2.834e-08
3115.0,8.552e-08
3120.0,4.256e-07
3125.0,1.235e-07
3130.0,2.47e-07
3135.0,5e-07
3140.0,1.309e-07
3145.0,1.284e-07
3150.0,2.734e-07
3155.0,2.297e-07
3160.0,3.841e-07
3165.0,6.09e-07
3170.0,5.387e-07
3175.0,3.761e-07
3180.0,4.455e-07
3185.0,3.1e-07
3190.0,1.61e-07
3195.0,8.885e-08
3200.0,1.239e-08
3205.0,8.083e-09
3210.0,3.361e-09
3215.0,1.372e-08
3220.0,4.853e-08
3225.0,5.525e-09
3230.0,9.19e-09
3235.0,2.662e-07
3240.0,1.195e-07
3245.0,2.233e-08
3250.0,8.336e-08
3255.0,3.668e-07
3260.0,3.539e-08
3265.0,7.726e-08
3270.0,3.607e-08
3275.0,2.227e-07
3280.0,9.349e-08
3285.0,4.181e-07
3290.0,3.123e-07
3295.0,3.716e-08
3300.0,5.547e-08
3305.0,1.289e-07
3310.0,1.223e-07
3315.0,1.715e-10
3320.0,1.083e-09
3325.0,1.025e-07
3330.0,1.57e-07
3335.0,3.086e-07
3340.0,1.112e-07
3345.0,1.079e-07
3350.0,2.736e-07
3355.0,1.089e-07
3360.0,1.682e-07
3365.0,2.384e-07
3370.0,1.139e-07
3375.0,2.8e-07
3380.0,1.502e-07
3385.0,2.398e-07
3390.0,3.163e-07
3395.0,3.061e-07
3400.0,4.151e-07
3405.0,1.244e-07
3410.0,2.202e-07
3415.0,2.139e-07
3420.0,4.312e-07
3425.0,3.07e-07
3430.0,2.583e-07
3435.0,3.702e-07
3440.0,2.354e-07
3445.0,3.528e-07
3450.0,3.446e-07
3455.0,2.444e-07
3460.0,3.928e-07
3465.0,2.896e-07
3470.0,3.802e-07
3475.0,3.293e-07
3480.0,3.374e-07
3485.0,3.675e-07
3490.0,3.058e-07
3495.0,3.696e-07
3500.0,3.567e-07
3505.0,3.514e-07
3510.0,3.561e-07
3515.0,3.393e-07
3520.0,3.626e-07
3525.0,3.368e-07
3530.0,3.264e-07
3535.0,2.658e-07
3540.0,2.513e-07
3545.0,2.667e-07
3550.0,3.017e-07
3555.0,2.519e-07
3560.0,3.09e-07
3565.0,3.083e-07
3570.0,2.301e-07
3575.0,2.378e-07
3580.0,2.88e-07
3585.0,2.503e-07
3590.0,2.615e-07
3595.0,2.673e-07
3600.0,2.862e-07
3605.0,2.854e-07
3610.0,2.576e-07
3615.0,2.578e-07
3620.0,3.236e-07
3625.0,2.75e-07
3630.0,2.671e-07
3635.0,2.753e-07
3640.0,3.117e-07
3645.0,2.794e-07
3650.0,2.648e-07
3655.0,2.901e-07
3660.0,2.871e-07
3665.0,2.635e-07
3670.0,1.959e-07
3675.0,1.091e-07
3680.0,2.036e-07
3685.0,2.353e-07
3690.0,2.431e-07
3695.0,2.541e-07
3700.0,2.763e-07
3705.0,2.709e-07
3710.0,2.295e-07
3715.0,2.252e-07
3720.0,2.588e-07
3725.0,2.66e-07
3730.0,2.247e-07
3735.0,2.024e-07
3740.0,2.084e-07
3745.0,2.481e-07
3750.0,2.214e-07
3755.0,2.127e-07
3760.0,2.085e-07
3765.0,1.994e-07
3770.0,2.151e-07
3775.0,2.117e-07
3780.0,2.255e-07
3785.0,2.028e-07
3790.0,1.752e-07
3795.0,2.038e-07
3800.0,2.319e-07
3805.0,2.151e-07
3810.0,1.861e-07
3815.0,1.72e-07
3820.0,2.227e-07
3825.0,2.164e-07
3830.0,2.195e-07
3835.0,1.672e-07
3840.0,2.015e-07
3845.0,1.95e-07
3850.0,1.957e-07
3855.0,1.855e-07
3860.0,1.706e-07
3865.0,1.715e-07
3870.0,1.52e-07
3875.0,1.355e-07
3880.0,1.297e-07
3885.0,1.347e-07
3890.0,1.364e-07
3895.0,1.518e-07
3900.0,1.626e-07
3905.0,1.614e-07
3910.0,1.412e-07
3915.0,1.364e-07
3920.0,1.358e-07
3925.0,1.326e-07
3930.0,1.375e-07
3935.0,1.44e-07
3940.0,1.456e-07
3945.0,1.481e-07
3950.0,1.503e-07
3955.0,1.517e-07
3960.0,1.528e-07
3965.0,1.537e-07
3970.0,1.512e-07
3975.0,1.46e-07
3980.0,1.43e-07
3985.0,1.432e-07
3990.0,1.405e-07
3995.0,1.365e-07
4000.0,1.3e-07
