interpolation:linear
wavelength,value
280.0,3.78e-23
280.5,1.309e-21
281.0,7.127e-21
281.5,2.382e-19
282.0,1.951e-18
282.5,4.593e-18
283.0,1.414e-17
283.5,2.282e-17
284.0,3.815e-16
284.5,1.124e-15
285.0,1.31e-15
285.5,6.469e-15
286.0,2.599e-14
286.5,1.178e-13
287.0,3.395e-13
287.5,1.322e-12
288.0,8.197e-12
288.5,2.053e-11
289.0,4.925e-11
289.5,1.389e-10
290.0,3.704e-10
290.5,7.336e-10
291.0,1.534e-09
291.5,4.307e-09
292.0,8.138e-09
292.5,1.094e-08
293.0,2.241e-08
293.5,5.193e-08
294.0,7.802e-08
294.5,1.572e-08
295.0,2.648e-08
295.5,4.076e-08
296.0,7.27e-08
296.5,9.398e-08
297.0,1.191e-07
297.5,2.89e-07
298.0,4.175e-07
298.5,3.922e-07
299.0,8.082e-07
299.5,1.189e-06
300.0,1.221e-06
300.5,1.647e-06
301.0,2.655e-06
301.5,3.807e-06
302.0,3.084e-06
302.5,4.992e-06
303.0,8.677e-06
303.5,1.069e-05
304.0,9.915e-06
304.5,1.446e-05
305.0,2.178e-05
305.5,2.516e-05
306.0,2.449e-05
306.5,3.09e-05
307.0,4.776e-05
307.5,6.704e-05
308.0,7.153e-05
308.5,8.73e-05
309.0,7.514e-05
309.5,8.991e-05
310.0,9.317e-05
310.5,0.0001536
311.0,0.0001991
311.5,0.0001951
312.0,0.0002124
312.5,0.0002759
313.0,0.0003106
313.5,0.0002914
314.0,0.0003976
314.5,0.0004016
315.0,0.0005411
315.5,0.0004234
316.0,0.0004142
316.5,0.0006613
317.0,0.0008194
317.5,0.0008266
318.0,0.0006981
318.5,0.001046
319.0,0.001369
319.5,0.0009538
320.0,0.001126
320.5,0.001717
321.0,0.001842
321.5,0.0018
322.0,0.001569
322.5,0.001379
323.0,0.001564
323.5,0.003897
324.0,0.004729
324.5,0.004343
325.0,0.002014
325.5,0.00289
326.0,0.006707
326.5,0.007699
327.0,0.007248
327.5,0.006592
328.0,0.004947
328.5,0.006384
329.0,0.009234
329.5,0.0111
330.0,0.01069
330.5,0.007369
331.0,0.007155
331.5,0.008103
332.0,0.01024
332.5,0.01084
333.0,0.01039
333.5,0.00839
334.0,0.008429
334.5,0.01107
335.0,0.01119
335.5,0.01387
336.0,0.009596
336.5,0.01022
337.0,0.007942
337.5,0.009681
338.0,0.0105
338.5,0.01303
339.0,0.013
339.5,0.01244
340.0,0.01362
340.5,0.0124
341.0,0.0129
341.5,0.01201
342.0,0.0144
342.5,0.01353
343.0,0.01475
343.5,0.01381
344.0,0.00956
344.5,0.0102
345.0,0.01372
345.5,0.0141
346.0,0.01204
346.5,0.01367
347.0,0.01457
347.5,0.01175
348.0,0.01352
348.5,0.01358
349.0,0.01263
349.5,0.01249
350.0,0.01547
350.5,0.01631
351.0,0.01451
351.5,0.01395
352.0,0.01509
352.5,0.01184
353.0,0.01497
353.5,0.01604
354.0,0.01668
354.5,0.01692
355.0,0.01684
355.5,0.01523
356.0,0.01596
356.5,0.01363
357.0,0.01126
357.5,0.01379
358.0,0.01094
358.5,0.009354
359.0,0.01307
359.5,0.01661
360.0,0.01763
360.5,0.01411
361.0,0.01288
361.5,0.01484
362.0,0.01285
362.5,0.01778
363.0,0.01598
363.5,0.01472
364.0,0.018
364.5,0.01539
365.0,0.01567
365.5,0.01967
366.0,0.02085
366.5,0.0196
367.0,0.01909
367.5,0.01982
368.0,0.01734
368.5,0.0175
369.0,0.0189
369.5,0.02015
370.0,0.02149
370.5,0.01668
371.0,0.01783
371.5,0.02231
372.0,0.01481
372.5,0.01776
373.0,0.01807
373.5,0.01176
374.0,0.01709
374.5,0.01415
375.0,0.01376
375.5,0.02055
376.0,0.01703
376.5,0.01766
377.0,0.0187
377.5,0.02188
378.0,0.02372
378.5,0.02242
379.0,0.0185
379.5,0.01691
380.0,0.01758
380.5,0.02129
381.0,0.02134
381.5,0.01692
382.0,0.01503
382.5,0.01281
383.0,0.01186
383.5,0.01143
384.0,0.01261
384.5,0.01855
385.0,0.0184
385.5,0.01714
386.0,0.01468
386.5,0.01928
387.0,0.01602
387.5,0.018
388.0,0.01662
388.5,0.01643
389.0,0.01774
389.5,0.02149
390.0,0.02157
390.5,0.01985
391.0,0.02337
391.5,0.02384
392.0,0.02008
392.5,0.01798
393.0,0.01001
393.5,0.007275
394.0,0.01481
394.5,0.01883
395.0,0.02297
395.5,0.02334
396.0,0.02024
396.5,0.01183
397.0,0.008882
397.5,0.01807
398.0,0.02531
398.5,0.02616
399.0,0.02833
399.5,0.02824
400.0,0.02932
401.0,0.02896
402.0,0.03055
403.0,0.02902
404.0,0.02858
405.0,0.02857
406.0,0.02811
407.0,0.02764
408.0,0.0287
409.0,0.0307
410.0,0.02682
411.0,0.02905
412.0,0.03121
413.0,0.03044
414.0,0.03081
415.0,0.03087
416.0,0.03139
417.0,0.0306
418.0,0.03003
419.0,0.03042
420.0,0.03028
421.0,0.03166
422.0,0.03006
423.0,0.02932
424.0,0.03097
425.0,0.03088
426.0,0.03006
427.0,0.02951
428.0,0.02876
429.0,0.02724
430.0,0.02383
431.0,0.02359
432.0,0.03041
433.0,0.03054
434.0,0.02835
435.0,0.02961
436.0,0.03334
437.0,0.03286
438.0,0.02986
439.0,0.03079
440.0,0.03169
441.0,0.03275
442.0,0.03504
443.0,0.0341
444.0,0.03484
445.0,0.03413
446.0,0.0326
447.0,0.03524
448.0,0.03573
449.0,0.03577
450.0,0.03667
451.0,0.03798
452.0,0.03657
453.0,0.03439
454.0,0.03588
455.0,0.03599
456.0,0.03675
457.0,0.0372
458.0,0.03576
459.0,0.03538
460.0,0.0353
461.0,0.03599
462.0,0.03622
463.0,0.03601
464.0,0.03549
465.0,0.03511
466.0,0.03545
467.0,0.03473
468.0,0.03501
469.0,0.03505
470.0,0.03383
471.0,0.03375
472.0,0.03553
473.0,0.03503
474.0,0.035
475.0,0.03515
476.0,0.03389
477.0,0.03375
478.0,0.03444
479.0,0.03396
480.0,0.03376
481.0,0.03416
482.0,0.03421
483.0,0.03377
484.0,0.03312
485.0,0.03163
486.0,0.02771
487.0,0.02904
488.0,0.03179
489.0,0.03177
490.0,0.03328
491.0,0.03257
492.0,0.03067
493.0,0.03161
494.0,0.03186
495.0,0.03205
496.0,0.03211
497.0,0.03241
498.0,0.03065
499.0,0.03076
500.0,0.02959
501.0,0.02877
502.0,0.02807
503.0,0.02893
504.0,0.02797
505.0,0.02883
506.0,0.02969
507.0,0.02824
508.0,0.02738
509.0,0.02818
510.0,0.02804
511.0,0.02876
512.0,0.02899
513.0,0.02733
514.0,0.027
515.0,0.0266
516.0,0.02641
517.0,0.02336
518.0,0.02446
519.0,0.02555
520.0,0.02635
521.0,0.02644
522.0,0.02628
523.0,0.02566
524.0,0.02635
525.0,0.02641
526.0,0.02501
527.0,0.02333
528.0,0.02444
529.0,0.02555
530.0,0.02499
531.0,0.02517
532.0,0.02416
533.0,0.02335
534.0,0.02397
535.0,0.02444
536.0,0.02462
537.0,0.0236
538.0,0.02394
539.0,0.02364
540.0,0.02255
541.0,0.02255
542.0,0.0231
543.0,0.02272
544.0,0.02297
545.0,0.02278
546.0,0.02276
547.0,0.02264
548.0,0.02228
549.0,0.02226
550.0,0.02242
551.0,0.02204
552.0,0.0221
553.0,0.0216
554.0,0.02199
555.0,0.0219
556.0,0.02148
557.0,0.02067
558.0,0.02034
559.0,0.01978
560.0,0.01985
561.0,0.01993
562.0,0.01961
563.0,0.01997
564.0,0.01928
565.0,0.01898
566.0,0.01859
567.0,0.01881
568.0,0.0185
569.0,0.01794
570.0,0.01782
571.0,0.01761
572.0,0.01791
573.0,0.01801
574.0,0.01788
575.0,0.0175
576.0,0.01731
577.0,0.01749
578.0,0.01722
579.0,0.0173
580.0,0.01764
581.0,0.01775
582.0,0.01809
583.0,0.01813
584.0,0.01828
585.0,0.0178
586.0,0.0174
587.0,0.01773
588.0,0.01721
589.0,0.01514
590.0,0.01576
591.0,0.01663
592.0,0.0163
593.0,0.01644
594.0,0.01619
595.0,0.01564
596.0,0.01618
597.0,0.01585
598.0,0.0157
599.0,0.0156
600.0,0.01552
601.0,0.01533
602.0,0.01517
603.0,0.01538
604.0,0.01562
605.0,0.01553
606.0,0.01548
607.0,0.01565
608.0,0.01551
609.0,0.01557
610.0,0.0155
611.0,0.01562
612.0,0.01561
613.0,0.01545
614.0,0.01527
615.0,0.01563
616.0,0.01514
617.0,0.01512
618.0,0.01572
619.0,0.01557
620.0,0.01566
621.0,0.01567
622.0,0.01548
623.0,0.01524
624.0,0.01496
625.0,0.01491
626.0,0.01512
627.0,0.01527
628.0,0.01408
629.0,0.01483
630.0,0.01448
631.0,0.01486
632.0,0.0147
633.0,0.01517
634.0,0.01506
635.0,0.01531
636.0,0.01513
637.0,0.0154
638.0,0.01557
639.0,0.01542
640.0,0.01529
641.0,0.0153
642.0,0.01525
643.0,0.01547
644.0,0.01543
645.0,0.01544
646.0,0.01505
647.0,0.0148
648.0,0.01483
649.0,0.01451
650.0,0.01466
651.0,0.0153
652.0,0.01459
653.0,0.0151
654.0,0.01492
655.0,0.0143
656.0,0.01268
657.0,0.01302
658.0,0.0146
659.0,0.0147
660.0,0.01474
661.0,0.01485
662.0,0.01488
663.0,0.01457
664.0,0.01472
665.0,0.01472
666.0,0.01472
667.0,0.01471
668.0,0.01471
669.0,0.01492
670.0,0.01484
671.0,0.01482
672.0,0.01468
673.0,0.01489
674.0,0.01482
675.0,0.01467
676.0,0.01475
677.0,0.01458
678.0,0.0146
679.0,0.01435
680.0,0.01443
681.0,0.0143
682.0,0.01425
683.0,0.01418
684.0,0.01407
685.0,0.01416
686.0,0.01404
687.0,0.008946
688.0,0.01044
689.0,0.01046
690.0,0.01097
691.0,0.01158
692.0,0.01207
693.0,0.01197
694.0,0.0119
695.0,0.01246
696.0,0.01246
697.0,0.01334
698.0,0.01309
699.0,0.01265
700.0,0.01246
701.0,0.01226
702.0,0.01234
703.0,0.01237
704.0,0.01279
705.0,0.01275
706.0,0.01272
707.0,0.0127
708.0,0.01269
709.0,0.01271
710.0,0.01263
711.0,0.01259
712.0,0.01255
713.0,0.01234
714.0,0.01236
715.0,0.01189
716.0,0.01183
717.0,0.009992
718.0,0.009157
719.0,0.008361
720.0,0.008713
721.0,0.009675
722.0,0.01116
723.0,0.01031
724.0,0.009195
725.0,0.009009
726.0,0.009396
727.0,0.00956
728.0,0.008895
729.0,0.009257
730.0,0.009745
731.0,0.009276
732.0,0.009979
733.0,0.0106
734.0,0.01085
735.0,0.01057
736.0,0.01049
737.0,0.01051
738.0,0.01073
739.0,0.01048
740.0,0.01074
741.0,0.01061
742.0,0.01059
743.0,0.01082
744.0,0.01075
745.0,0.01072
746.0,0.01072
747.0,0.01071
748.0,0.01064
749.0,0.01049
750.0,0.01046
751.0,0.01032
752.0,0.01035
753.0,0.01038
754.0,0.01037
755.0,0.01028
756.0,0.01025
757.0,0.01023
758.0,0.01007
759.0,0.00973
760.0,0.001612
761.0,0.0008598
762.0,0.004722
763.0,0.002402
764.0,0.003553
765.0,0.004668
766.0,0.005673
767.0,0.007142
768.0,0.008379
769.0,0.008606
770.0,0.008996
771.0,0.009103
772.0,0.009105
773.0,0.009128
774.0,0.00904
775.0,0.008927
776.0,0.00899
777.0,0.008825
778.0,0.008725
779.0,0.008693
780.0,0.008613
781.0,0.008593
782.0,0.008626
783.0,0.008458
784.0,0.008479
785.0,0.008391
786.0,0.008455
787.0,0.008224
788.0,0.008081
789.0,0.008055
790.0,0.007764
791.0,0.007855
792.0,0.007783
793.0,0.007626
794.0,0.007794
795.0,0.007882
796.0,0.007514
797.0,0.007497
798.0,0.007773
799.0,0.007681
800.0,0.007487
801.0,0.007417
802.0,0.007355
803.0,0.007249
804.0,0.007246
805.0,0.00722
806.0,0.007442
807.0,0.007311
808.0,0.007272
809.0,0.007056
810.0,0.006958
811.0,0.006882
812.0,0.006601
813.0,0.006426
814.0,0.005549
815.0,0.005497
816.0,0.005082
817.0,0.005149
818.0,0.004932
819.0,0.005526
820.0,0.0052
821.0,0.006162
822.0,0.005936
823.0,0.003906
824.0,0.005695
825.0,0.00602
826.0,0.0057
827.0,0.006058
828.0,0.005001
829.0,0.005641
830.0,0.005548
831.0,0.005539
832.0,0.005331
833.0,0.005698
834.0,0.005462
835.0,0.00607
836.0,0.005716
837.0,0.006033
838.0,0.005791
839.0,0.005894
840.0,0.006013
841.0,0.00588
842.0,0.005896
843.0,0.005912
844.0,0.005786
845.0,0.005973
846.0,0.005932
847.0,0.005801
848.0,0.005719
849.0,0.005529
850.0,0.005267
851.0,0.005526
852.0,0.00547
853.0,0.00525
854.0,0.004504
855.0,0.004945
856.0,0.005381
857.0,0.005494
858.0,0.005431
859.0,0.005427
860.0,0.005425
861.0,0.005378
862.0,0.005451
863.0,0.005564
864.0,0.005271
865.0,0.005209
866.0,0.004669
867.0,0.004856
868.0,0.005267
869.0,0.00514
870.0,0.005269
871.0,0.005177
872.0,0.005141
873.0,0.005111
874.0,0.005031
875.0,0.004909
876.0,0.004938
877.0,0.004969
878.0,0.005
879.0,0.004903
880.0,0.004777
881.0,0.004678
882.0,0.004754
883.0,0.004757
884.0,0.004712
885.0,0.004723
886.0,0.004462
887.0,0.004509
888.0,0.004545
889.0,0.004598
890.0,0.004516
891.0,0.004504
892.0,0.004323
893.0,0.004152
894.0,0.003936
895.0,0.003653
896.0,0.003403
897.0,0.00288
898.0,0.003139
899.0,0.002344
900.0,0.003202
901.0,0.002443
902.0,0.002874
903.0,0.002893
904.0,0.003736
905.0,0.003582
906.0,0.003324
907.0,0.00263
908.0,0.002691
909.0,0.002912
910.0,0.002535
911.0,0.002726
912.0,0.002844
913.0,0.002544
914.0,0.002529
915.0,0.002717
916.0,0.002291
917.0,0.002925
918.0,0.002327
919.0,0.002962
920.0,0.003028
921.0,0.003132
922.0,0.002757
923.0,0.003005
924.0,0.002794
925.0,0.002716
926.0,0.002736
927.0,0.003071
928.0,0.002182
929.0,0.001976
930.0,0.001536
931.0,0.001449
932.0,0.001036
933.0,0.0008372
934.0,0.0004543
935.0,0.000851
936.0,0.0005272
937.0,0.0005316
938.0,0.0006517
939.0,0.001357
940.0,0.001629
941.0,0.001219
942.0,0.001407
943.0,0.0009182
944.0,0.0009655
945.0,0.001236
946.0,0.0006233
947.0,0.001232
948.0,0.0009021
949.0,0.001646
950.0,0.0004498
951.0,0.001611
952.0,0.0008565
953.0,0.001106
954.0,0.001356
955.0,0.001112
956.0,0.001081
957.0,0.0008418
958.0,0.001528
959.0,0.0012
960.0,0.001342
961.0,0.001508
962.0,0.001421
963.0,0.001644
964.0,0.001496
965.0,0.001621
966.0,0.00162
967.0,0.001607
968.0,0.002232
969.0,0.002297
970.0,0.002102
971.0,0.002437
972.0,0.00231
973.0,0.001958
974.0,0.001851
975.0,0.001924
976.0,0.001803
977.0,0.002099
978.0,0.001956
979.0,0.002052
980.0,0.001919
981.0,0.002338
982.0,0.002214
983.0,0.002105
984.0,0.002418
985.0,0.002173
986.0,0.002471
987.0,0.002384
988.0,0.00238
989.0,0.002451
990.0,0.002333
991.0,0.002427
992.0,0.002437
993.0,0.00235
994.0,0.002425
995.0,0.00242
996.0,0.002397
997.0,0.002396
998.0,0.002374
999.0,0.002359
1000.0,0.002328
1001.0,0.002356
1002.0,0.002248
1003.0,0.002296
1004.0,0.002221
1005.0,0.002144
1006.0,0.002217
1007.0,0.002256
1008.0,0.002231
1009.0,0.002205
1010.0,0.002186
1011.0,0.002212
1012.0,0.002181
1013.0,0.002193
1014.0,0.00217
1015.0,0.002147
1016.0,0.002128
1017.0,0.002124
1018.0,0.002113
1019.0,0.002047
1020.0,0.002085
1021.0,0.002076
1022.0,0.002048
1023.0,0.002063
1024.0,0.002017
1025.0,0.002049
1026.0,0.002029
1027.0,0.002019
1028.0,0.002006
1029.0,0.001973
1030.0,0.001983
1031.0,0.001967
1032.0,0.001955
1033.0,0.001919
1034.0,0.001912
1035.0,0.001911
1036.0,0.001912
1037.0,0.001875
1038.0,0.001875
1039.0,0.001867
1040.0,0.001852
1041.0,0.001851
1042.0,0.001831
1043.0,0.001818
1044.0,0.001817
1045.0,0.001784
1046.0,0.001757
1047.0,0.001765
1048.0,0.001768
1049.0,0.001754
1050.0,0.001738
1051.0,0.001729
1052.0,0.001714
1053.0,0.001693
1054.0,0.001689
1055.0,0.001682
1056.0,0.001668
1057.0,0.001655
1058.0,0.001607
1059.0,0.001601
1060.0,0.001592
1061.0,0.001584
1062.0,0.001585
1063.0,0.001562
1064.0,0.001575
1065.0,0.001554
1066.0,0.001521
1067.0,0.001534
1068.0,0.001493
1069.0,0.001445
1070.0,0.001488
1071.0,0.001512
1072.0,0.001484
1073.0,0.001458
1074.0,0.0015
1075.0,0.001403
1076.0,0.001488
1077.0,0.001448
1078.0,0.001409
1079.0,0.001453
1080.0,0.001407
1081.0,0.001351
1082.0,0.001383
1083.0,0.001386
1084.0,0.00133
1085.0,0.001389
1086.0,0.001242
1087.0,0.001291
1088.0,0.001359
1089.0,0.001293
1090.0,0.001254
1091.0,0.001334
1092.0,0.001328
1093.0,0.001087
1094.0,0.001201
1095.0,0.001124
1096.0,0.001065
1097.0,0.001276
1098.0,0.00104
1099.0,0.001081
1100.0,0.0009905
1101.0,0.001006
1102.0,0.0009508
1103.0,0.0009323
1104.0,0.0009335
1105.0,0.001027
1106.0,0.0007624
1107.0,0.0009669
1108.0,0.0008011
1109.0,0.0007995
1110.0,0.000939
1111.0,0.0006205
1112.0,0.0007864
1113.0,0.0004889
1114.0,0.0005448
1115.0,0.0004495
1116.0,0.0003551
1117.0,0.0001277
1118.0,0.0003845
1119.0,0.0001882
1120.0,0.000236
1121.0,0.0003133
1122.0,0.0001298
1123.0,0.0002112
1124.0,0.0001776
1125.0,0.0002314
1126.0,7.865e-05
1127.0,0.0002593
1128.0,0.0001529
1129.0,0.0001619
1130.0,0.0001055
1131.0,0.0004895
1132.0,0.0003819
1133.0,0.0002389
1134.0,5.953e-05
1135.0,2.231e-05
1136.0,0.0001964
1137.0,0.0004704
1138.0,0.0003297
1139.0,0.0004949
1140.0,0.0004102
1141.0,0.0003102
1142.0,0.0003566
1143.0,0.0005066
1144.0,0.0001742
1145.0,0.0002213
1146.0,0.0002378
1147.0,8.179e-05
1148.0,0.0004309
1149.0,0.0003416
1150.0,0.0001838
1151.0,0.0003131
1152.0,0.0003857
1153.0,0.0003758
1154.0,0.0002078
1155.0,0.0004893
1156.0,0.0004383
1157.0,0.0004927
1158.0,0.0004858
1159.0,0.0005232
1160.0,0.0004452
1161.0,0.0005527
1162.0,0.0005537
1163.0,0.0007618
1164.0,0.0006449
1165.0,0.0006011
1166.0,0.0006
1167.0,0.0006536
1168.0,0.0006603
1169.0,0.0006765
1170.0,0.00074
1171.0,0.000715
1172.0,0.0007344
1173.0,0.0007289
1174.0,0.0005068
1175.0,0.0007133
1176.0,0.0007979
1177.0,0.0007531
1178.0,0.0005498
1179.0,0.0007944
1180.0,0.0006938
1181.0,0.0007113
1182.0,0.0004757
1183.0,0.0006989
1184.0,0.0006483
1185.0,0.0006184
1186.0,0.0007474
1187.0,0.0007007
1188.0,0.0004734
1189.0,0.0006485
1190.0,0.0007228
1191.0,0.0006728
1192.0,0.0007302
1193.0,0.0006937
1194.0,0.0007144
1195.0,0.0006654
1196.0,0.000634
1197.0,0.0007102
1198.0,0.000646
1199.0,0.0005318
1200.0,0.0006683
1201.0,0.0006346
1202.0,0.0006377
1203.0,0.0006237
1204.0,0.0005417
1205.0,0.0006511
1206.0,0.0007263
1207.0,0.0006229
1208.0,0.0006162
1209.0,0.0006259
1210.0,0.0006567
1211.0,0.0006183
1212.0,0.0005979
1213.0,0.0006803
1214.0,0.0006115
1215.0,0.0005969
1216.0,0.0006748
1217.0,0.0006508
1218.0,0.0006649
1219.0,0.0006517
1220.0,0.0006609
1221.0,0.0006707
1222.0,0.0006473
1223.0,0.0006379
1224.0,0.0006276
1225.0,0.0006544
1226.0,0.0006617
1227.0,0.0005958
1228.0,0.0006634
1229.0,0.0006547
1230.0,0.0006401
1231.0,0.0006635
1232.0,0.0006572
1233.0,0.000621
1234.0,0.0006602
1235.0,0.0006512
1236.0,0.0006561
1237.0,0.00064
1238.0,0.0006498
1239.0,0.0006394
1240.0,0.0006407
1241.0,0.0006319
1242.0,0.0006317
1243.0,0.0006249
1244.0,0.0006259
1245.0,0.0006275
1246.0,0.0006221
1247.0,0.0006164
1248.0,0.0006122
1249.0,0.0006139
1250.0,0.0006069
1251.0,0.0005946
1252.0,0.0005962
1253.0,0.0005837
1254.0,0.0005725
1255.0,0.0005887
1256.0,0.0005603
1257.0,0.0005537
1258.0,0.0005696
1259.0,0.0005344
1260.0,0.0005369
1261.0,0.0004944
1262.0,0.0004741
1263.0,0.0004735
1264.0,0.0004302
1265.0,0.0004675
1266.0,0.0004449
1267.0,0.0004537
1268.0,0.0004255
1269.0,0.0002609
1270.0,0.0004468
1271.0,0.0004793
1272.0,0.0004797
1273.0,0.0004722
1274.0,0.0004741
1275.0,0.0004808
1276.0,0.0004863
1277.0,0.0004916
1278.0,0.0005041
1279.0,0.0004989
1280.0,0.0004911
1281.0,0.0004702
1282.0,0.0004561
1283.0,0.0004886
1284.0,0.0004986
1285.0,0.0005015
1286.0,0.0005087
1287.0,0.0004955
1288.0,0.0004957
1289.0,0.00047
1290.0,0.0004881
1291.0,0.0004953
1292.0,0.0004513
1293.0,0.0004803
1294.0,0.0004744
1295.0,0.0004644
1296.0,0.0004378
1297.0,0.0004096
1298.0,0.0004465
1299.0,0.0004716
1300.0,0.0003837
1301.0,0.0003942
1302.0,0.0004404
1303.0,0.0003767
1304.0,0.0003128
1305.0,0.0004254
1306.0,0.0004212
1307.0,0.0003183
1308.0,0.0003708
1309.0,0.000412
1310.0,0.0003088
1311.0,0.0003516
1312.0,0.0003406
1313.0,0.000329
1314.0,0.0002902
1315.0,0.0002856
1316.0,0.0003393
1317.0,0.0003195
1318.0,0.0003491
1319.0,0.000265
1320.0,0.0002555
1321.0,0.0002997
1322.0,0.0002998
1323.0,0.0002224
1324.0,0.0002564
1325.0,0.0003219
1326.0,0.0002733
1327.0,0.0002589
1328.0,0.000221
1329.0,0.0001647
1330.0,0.0002142
1331.0,0.0001285
1332.0,0.0001323
1333.0,0.0001837
1334.0,0.0001555
1335.0,0.0002133
1336.0,0.0001679
1337.0,0.000148
1338.0,0.0001597
1339.0,0.0001585
1340.0,0.0001538
1341.0,0.0001495
1342.0,0.0001566
1343.0,0.0001055
1344.0,6.298e-05
1345.0,9.059e-05
1346.0,4.469e-05
1347.0,4.527e-05
1348.0,2.919e-06
1349.0,1.047e-05
1350.0,1.085e-05
1351.0,2.624e-06
1352.0,7.058e-07
1353.0,3.592e-08
1354.0,1.235e-07
1355.0,9.942e-10
1356.0,1.74e-08
1357.0,2.644e-08
1358.0,1.167e-09
1359.0,1.471e-10
1360.0,5.315e-10
1361.0,5.946e-13
1362.0,1.627e-15
1363.0,7.148e-10
1364.0,2.951e-10
1365.0,5.68e-16
1366.0,3.098e-09
1367.0,1.265e-09
1368.0,4.386e-18
1369.0,1.088e-10
1370.0,5.357e-11
1371.0,3.037e-12
1372.0,6.861e-10
1373.0,1.382e-08
1374.0,6.411e-08
1375.0,1.163e-07
1376.0,1.043e-07
1377.0,4.764e-08
1378.0,4.658e-07
1379.0,1.991e-08
1380.0,2.861e-08
1381.0,7.452e-10
1382.0,6.015e-10
1383.0,8.993e-12
1384.0,1.179e-10
1385.0,5.639e-10
1386.0,5.304e-10
1387.0,6.416e-08
1388.0,1.262e-09
1389.0,2.166e-07
1390.0,1.859e-07
1391.0,1.237e-07
1392.0,8.016e-09
1393.0,4.247e-08
1394.0,2.189e-08
1395.0,1.604e-10
1396.0,7.753e-13
1397.0,1.672e-08
1398.0,4.945e-07
1399.0,3.128e-07
1400.0,3.316e-13
1401.0,1.376e-12
1402.0,8.666e-07
1403.0,1.085e-06
1404.0,3.298e-07
1405.0,7.599e-11
1406.0,8.525e-07
1407.0,7.513e-08
1408.0,6.936e-07
1409.0,2.312e-07
1410.0,1.851e-07
1411.0,9.336e-07
1412.0,1.26e-06
1413.0,1.311e-05
1414.0,1.445e-07
1415.0,6.903e-08
1416.0,2.167e-05
1417.0,6.399e-06
1418.0,7.246e-06
1419.0,1.115e-06
1420.0,4.404e-06
1421.0,4.75e-06
1422.0,2.785e-05
1423.0,5.343e-06
1424.0,1.003e-05
1425.0,1.465e-05
1426.0,1.677e-05
1427.0,3.119e-05
1428.0,2.183e-06
1429.0,2.297e-05
1430.0,3.963e-05
1431.0,4.357e-05
1432.0,1.697e-06
1433.0,2.734e-05
1434.0,1.375e-05
1435.0,1.333e-05
1436.0,2.625e-05
1437.0,2.007e-05
1438.0,8.285e-06
1439.0,3.568e-05
1440.0,2.664e-05
1441.0,1.992e-05
1442.0,2.207e-05
1443.0,2.815e-05
1444.0,3.92e-05
1445.0,3.011e-05
1446.0,1.336e-05
1447.0,2.105e-05
1448.0,7.459e-05
1449.0,6.409e-05
1450.0,1.552e-05
1451.0,6.109e-06
1452.0,3.772e-05
1453.0,4.972e-05
1454.0,8.745e-05
1455.0,4.026e-05
1456.0,5.367e-05
1457.0,7.314e-05
1458.0,8.739e-05
1459.0,0.0001029
1460.0,5.268e-05
1461.0,5.423e-05
1462.0,8.055e-05
1463.0,2.521e-05
1464.0,9.615e-05
1465.0,5.752e-05
1466.0,3.809e-05
1467.0,1.949e-05
1468.0,4.508e-05
1469.0,5.593e-05
1470.0,2.687e-05
1471.0,9.529e-06
1472.0,2.554e-05
1473.0,3.971e-05
1474.0,5.892e-05
1475.0,0.0001132
1476.0,3.949e-05
1477.0,3.945e-05
1478.0,3.684e-05
1479.0,7.182e-05
1480.0,3.378e-05
1481.0,6.798e-05
1482.0,3.303e-05
1483.0,8.845e-05
1484.0,8.282e-05
1485.0,7.309e-05
1486.0,7.144e-05
1487.0,3.183e-05
1488.0,5.691e-05
1489.0,0.0001138
1490.0,0.0001053
1491.0,0.0001196
1492.0,9.692e-05
1493.0,0.0001074
1494.0,0.0001224
1495.0,0.0001075
1496.0,0.0001
1497.0,0.000141
1498.0,0.000113
1499.0,0.0001323
1500.0,0.000156
1501.0,0.0001633
1502.0,0.0001365
1503.0,0.0001134
1504.0,8.941e-05
1505.0,0.000109
1506.0,0.0001624
1507.0,0.0001555
1508.0,0.0001475
1509.0,0.0001096
1510.0,0.0001683
1511.0,0.0001604
1512.0,0.0001608
1513.0,0.0001439
1514.0,0.0001333
1515.0,0.0001648
1516.0,0.0001563
1517.0,0.0001501
1518.0,0.0001508
1519.0,0.0001453
1520.0,0.000158
1521.0,0.0001732
1522.0,0.0001611
1523.0,0.0001753
1524.0,0.0001675
1525.0,0.000157
1526.0,0.0001586
1527.0,0.0001587
1528.0,0.0001714
1529.0,0.0001615
1530.0,0.000156
1531.0,0.0001617
1532.0,0.0001706
1533.0,0.0001709
1534.0,0.0001674
1535.0,0.0001651
1536.0,0.0001685
1537.0,0.0001639
1538.0,0.0001664
1539.0,0.0001626
1540.0,0.0001635
1541.0,0.000164
1542.0,0.0001613
1543.0,0.0001645
1544.0,0.0001618
1545.0,0.0001653
1546.0,0.0001613
1547.0,0.0001593
1548.0,0.0001589
1549.0,0.0001604
1550.0,0.0001586
1551.0,0.0001591
1552.0,0.0001571
1553.0,0.0001565
1554.0,0.0001544
1555.0,0.0001548
1556.0,0.0001542
1557.0,0.0001558
1558.0,0.0001545
1559.0,0.0001531
1560.0,0.0001536
1561.0,0.0001544
1562.0,0.0001517
1563.0,0.0001501
1564.0,0.0001503
1565.0,0.0001507
1566.0,0.000148
1567.0,0.0001481
1568.0,0.000146
1569.0,0.0001469
1570.0,0.0001477
1571.0,0.0001483
1572.0,0.0001469
1573.0,0.0001453
1574.0,0.0001396
1575.0,0.0001374
1576.0,0.0001344
1577.0,0.0001305
1578.0,0.0001364
1579.0,0.0001367
1580.0,0.0001377
1581.0,0.0001354
1582.0,0.0001325
1583.0,0.0001325
1584.0,0.0001356
1585.0,0.000137
1586.0,0.0001349
1587.0,0.0001323
1588.0,0.0001291
1589.0,0.0001248
1590.0,0.000127
1591.0,0.00013
1592.0,0.000133
1593.0,0.0001352
1594.0,0.0001344
1595.0,0.0001325
1596.0,0.0001281
1597.0,0.0001305
1598.0,0.0001327
1599.0,0.000131
1600.0,0.00013
1601.0,0.0001276
1602.0,0.0001274
1603.0,0.0001289
1604.0,0.0001275
1605.0,0.0001272
1606.0,0.0001254
1607.0,0.0001262
1608.0,0.0001253
1609.0,0.0001221
1610.0,0.0001192
1611.0,0.000121
1612.0,0.0001223
1613.0,0.0001218
1614.0,0.0001217
1615.0,0.0001188
1616.0,0.0001166
1617.0,0.0001182
1618.0,0.0001204
1619.0,0.0001173
1620.0,0.0001151
1621.0,0.000116
1622.0,0.0001175
1623.0,0.000119
1624.0,0.000117
1625.0,0.0001163
1626.0,0.0001162
1627.0,0.000117
1628.0,0.0001161
1629.0,0.0001151
1630.0,0.000114
1631.0,0.0001125
1632.0,0.0001123
1633.0,0.0001075
1634.0,0.000111
1635.0,0.0001077
1636.0,0.0001075
1637.0,0.0001065
1638.0,9.782e-05
1639.0,0.0001037
1640.0,9.646e-05
1641.0,0.000102
1642.0,0.0001044
1643.0,9.496e-05
1644.0,0.0001042
1645.0,9.868e-05
1646.0,9.457e-05
1647.0,0.0001049
1648.0,9.387e-05
1649.0,0.000101
1650.0,0.0001018
1651.0,9.069e-05
1652.0,9.99e-05
1653.0,0.0001012
1654.0,9.264e-05
1655.0,0.0001005
1656.0,9.732e-05
1657.0,9.837e-05
1658.0,0.0001006
1659.0,9.923e-05
1660.0,9.987e-05
1661.0,9.908e-05
1662.0,9.501e-05
1663.0,9.855e-05
1664.0,9.715e-05
1665.0,8.883e-05
1666.0,6.989e-05
1667.0,8.763e-05
1668.0,9.305e-05
1669.0,9.359e-05
1670.0,9.554e-05
1671.0,9.199e-05
1672.0,9.124e-05
1673.0,9.333e-05
1674.0,8.989e-05
1675.0,8.866e-05
1676.0,8.973e-05
1677.0,8.869e-05
1678.0,8.5e-05
1679.0,8.856e-05
1680.0,8.445e-05
1681.0,8.038e-05
1682.0,8.63e-05
1683.0,8.801e-05
1684.0,7.814e-05
1685.0,8.851e-05
1686.0,8.801e-05
1687.0,8.281e-05
1688.0,8.674e-05
1689.0,8.577e-05
1690.0,8.484e-05
1691.0,7.529e-05
1692.0,8.378e-05
1693.0,8.703e-05
1694.0,8.198e-05
1695.0,8.527e-05
1696.0,8.545e-05
1697.0,6.865e-05
1698.0,8.37e-05
1699.0,8.258e-05
1700.0,7.931e-05
1702.0,8.105e-05
1705.0,7.71e-05
1710.0,7.204e-05
1715.0,7.163e-05
1720.0,7.033e-05
1725.0,6.372e-05
1730.0,6.278e-05
1735.0,5.776e-05
1740.0,5.779e-05
1745.0,5.376e-05
1750.0,5.625e-05
1755.0,5.112e-05
1760.0,5.26e-05
1765.0,4.205e-05
1770.0,4.433e-05
1775.0,3.485e-05
1780.0,2.935e-05
1785.0,2.169e-05
1790.0,2.488e-05
1795.0,1.206e-05
1800.0,8.297e-06
1805.0,3.294e-06
1810.0,2.138e-06
1815.0,6.188e-07
1820.0,1.548e-07
1825.0,2.02e-07
1830.0,4.924e-10
1835.0,7.456e-10
1840.0,4.351e-12
1845.0,4.652e-10
1850.0,2.1e-10
1855.0,2.007e-11
1860.0,1.15e-09
1865.0,1.603e-09
1870.0,8.774e-15
1875.0,1.585e-14
1880.0,8.443e-09
1885.0,4.499e-09
1890.0,2.468e-08
1895.0,1.432e-08
1900.0,6.12e-11
1905.0,4.169e-11
1910.0,2.019e-09
1915.0,1.967e-09
1920.0,5.159e-08
1925.0,1.212e-07
1930.0,7e-08
1935.0,5.336e-07
1940.0,5.299e-07
1945.0,2.183e-06
1950.0,4.244e-06
1955.0,3.785e-06
1960.0,6.654e-06
1965.0,9.67e-06
1970.0,1.357e-05
1975.0,1.527e-05
1980.0,1.521e-05
1985.0,1.629e-05
1990.0,1.681e-05
1995.0,1.763e-05
2000.0,1.861e-05
2005.0,1.533e-05
2010.0,2.263e-05
2015.0,1.71e-05
2020.0,1.835e-05
2025.0,2.012e-05
2030.0,1.813e-05
2035.0,2.003e-05
2040.0,1.874e-05
2045.0,1.919e-05
2050.0,1.956e-05
2055.0,1.836e-05
2060.0,1.754e-05
2065.0,1.775e-05
2070.0,1.731e-05
2075.0,1.782e-05
2080.0,1.721e-05
2085.0,1.694e-05
2090.0,1.702e-05
2095.0,1.63e-05
2100.0,1.49e-05
2105.0,1.612e-05
2110.0,1.518e-05
2115.0,1.557e-05
2120.0,1.43e-05
2125.0,1.449e-05
2130.0,1.464e-05
2135.0,1.464e-05
2140.0,1.465e-05
2145.0,1.436e-05
2150.0,1.309e-05
2155.0,1.298e-05
2160.0,1.276e-05
2165.0,1.149e-05
2170.0,1.223e-05
2175.0,1.171e-05
2180.0,1.201e-05
2185.0,1.051e-05
2190.0,1.137e-05
2195.0,1.114e-05
2200.0,9.431e-06
2205.0,1.003e-05
2210.0,1.105e-05
2215.0,1.034e-05
2220.0,1.049e-05
2225.0,1.004e-05
2230.0,1.001e-05
2235.0,9.627e-06
2240.0,9.424e-06
2245.0,8.876e-06
2250.0,9.098e-06
2255.0,8.269e-06
2260.0,8.057e-06
2265.0,8.268e-06
2270.0,7.615e-06
2275.0,7.423e-06
2280.0,7.812e-06
2285.0,7.159e-06
2290.0,7.107e-06
2295.0,6.848e-06
2300.0,6.395e-06
2305.0,6.403e-06
2310.0,7.126e-06
2315.0,6.187e-06
2320.0,5.336e-06
2325.0,6.014e-06
2330.0,5.92e-06
2335.0,6.037e-06
2340.0,4.546e-06
2345.0,5.109e-06
2350.0,3.991e-06
2355.0,4.616e-06
2360.0,4.88e-06
2365.0,4.813e-06
2370.0,2.734e-06
2375.0,4.126e-06
2380.0,3.925e-06
2385.0,2.751e-06
2390.0,3.264e-06
2395.0,3.578e-06
2400.0,3.899e-06
2405.0,2.917e-06
2410.0,2.9e-06
2415.0,2.289e-06
2420.0,2.201e-06
2425.0,2.759e-06
2430.0,3.764e-06
2435.0,1.16e-06
2440.0,3.618e-06
2445.0,1.628e-06
2450.0,1.023e-06
2455.0,1.948e-06
2460.0,2.615e-06
2465.0,1.829e-06
2470.0,1.208e-06
2475.0,1.17e-06
2480.0,5.471e-07
2485.0,3.563e-07
2490.0,2.049e-07
2495.0,1.772e-07
2500.0,4.397e-07
2505.0,8.94e-08
2510.0,1.315e-07
2515.0,2.784e-08
2520.0,1.565e-08
2525.0,1.785e-09
2530.0,1.243e-11
2535.0,2.748e-12
2540.0,6.52e-12
2545.0,5.057e-16
2550.0,2.05e-18
2555.0,9.84e-15
2560.0,2.953e-16
2565.0,6.612e-20
2570.0,1.969e-24
2575.0,1.245e-34
2580.0,1.299e-28
2585.0,2.714e-42
2590.0,1.693e-38
2595.0,3.295e-40
2600.0,2.713e-35
2605.0,2.997e-42
2610.0,1.0319999999999998e-41
2615.0,1.4009999999999999e-45
2620.0,9.094000000000001e-36
2625.0,1.665e-35
2630.0,0.0
2635.0,8.672e-22
2640.0,1.8769999999999998e-22
2645.0,8.183000000000001e-25
2650.0,8.151e-26
2655.0,9.802e-35
2660.0,8.253e-32
2665.0,8.408e-45
2670.0,0.0
2675.0,3.924e-44
2680.0,1.673e-30
2685.0,1.599e-31
2690.0,5.981e-31
2695.0,2.346e-33
2700.0,6.835e-29
2705.0,1.9380000000000002e-26
2710.0,1.543e-31
2715.0,1.9489999999999999e-29
2720.0,0.0
2725.0,4.364e-27
2730.0,1.272e-24
2735.0,1.451e-26
2740.0,2.621e-32
2745.0,3.379e-27
2750.0,1.8940000000000002e-26
2755.0,3.048e-28
2760.0,4.565e-23
2765.0,2.143e-29
2770.0,1.0530000000000001e-26
2775.0,1.3e-23
2780.0,6.052e-21
2785.0,2.2720000000000003e-20
2790.0,5.181e-18
2795.0,1.14e-18
2800.0,3.639e-15
2805.0,6.804e-17
2810.0,2.728e-13
2815.0,8.138e-14
2820.0,9.943e-16
2825.0,8.728e-12
2830.0,1.897e-10
2835.0,2.612e-15
2840.0,5.59e-12
2845.0,1.935e-09
2850.0,3.348e-11
2855.0,1.338e-11
2860.0,6.954e-10
2865.0,5.127e-09
2870.0,1.3e-10
2875.0,1.248e-08
2880.0,7.865e-09
2885.0,1.296e-08
2890.0,5.507e-09
2895.0,9.387e-08
2900.0,2.617e-08
2905.0,3.029e-09
2910.0,9.575e-08
2915.0,4.064e-08
2920.0,1.008e-07
2925.0,3.595e-08
2930.0,2.176e-07
2935.0,2.399e-07
2940.0,5.371e-08
2945.0,4.612e-08
2950.0,1.862e-07
2955.0,8.29e-08
2960.0,1.645e-07
2965.0,2.784e-07
2970.0,1.091e-08
2975.0,2.764e-08
2980.0,4.3e-08
2985.0,2.53e-07
2990.0,3.832e-07
2995.0,1.456e-07
3000.0,2.767e-07
3005.0,9.417e-08
3010.0,2.421e-07
3015.0,1.877e-07
3020.0,1.697e-08
3025.0,2.587e-07
3030.0,2.038e-07
3035.0,7.748e-08
3040.0,6.055e-08
3045.0,1.301e-07
3050.0,2.948e-08
3055.0,7.212e-09
3060.0,2.024e-07
3065.0,8.57e-08
3070.0,4.816e-08
3075.0,1.887e-07
3080.0,1.096e-07
3085.0,4.841e-08
3090.0,6.582e-08
3095.0,1.619e-08
3100.0,1.316e-07
3105.0,2.465e-08
3110.0,2.063e-08
3115.0,6.191e-08
3120.0,3.033e-07
3125.0,8.911e-08
3130.0,1.769e-07
3135.0,3.545e-07
3140.0,9.428e-08
3145.0,9.245e-08
3150.0,1.951e-07
3155.0,1.642e-07
3160.0,2.722e-07
3165.0,4.274e-07
3170.0,3.784e-07
3175.0,2.658e-07
3180.0,3.137e-07
3185.0,2.195e-07
3190.0,1.15e-07
3195.0,6.387e-08
3200.0,9.014e-09
3205.0,5.889e-09
3210.0,2.454e-09
3215.0,9.974e-09
3220.0,3.501e-08
3225.0,4.027e-09
3230.0,6.688e-09
3235.0,1.874e-07
3240.0,8.521e-08
3245.0,1.618e-08
3250.0,5.966e-08
3255.0,2.556e-07
3260.0,2.552e-08
3265.0,5.526e-08
3270.0,2.602e-08
3275.0,1.57e-07
3280.0,6.669e-08
3285.0,2.888e-07
3290.0,2.173e-07
3295.0,2.674e-08
3300.0,3.973e-08
3305.0,9.123e-08
3310.0,8.663e-08
3315.0,1.256e-10
3320.0,7.912e-10
3325.0,7.276e-08
3330.0,1.105e-07
3335.0,2.138e-07
3340.0,7.88e-08
3345.0,7.653e-08
3350.0,1.907e-07
3355.0,7.742e-08
3360.0,1.188e-07
3365.0,1.675e-07
3370.0,8.115e-08
3375.0,1.966e-07
3380.0,1.068e-07
3385.0,1.693e-07
3390.0,2.223e-07
3395.0,2.155e-07
3400.0,2.91e-07
3405.0,8.9e-08
3410.0,1.563e-07
3415.0,1.519e-07
3420.0,3.032e-07
3425.0,2.169e-07
3430.0,1.829e-07
3435.0,2.602e-07
3440.0,1.665e-07
3445.0,2.477e-07
3450.0,2.417e-07
3455.0,1.724e-07
3460.0,2.748e-07
3465.0,2.031e-07
3470.0,2.654e-07
3475.0,2.299e-07
3480.0,2.353e-07
3485.0,2.559e-07
3490.0,2.133e-07
3495.0,2.567e-07
3500.0,2.477e-07
3505.0,2.444e-07
3510.0,2.469e-07
3515.0,2.341e-07
3520.0,2.483e-07
3525.0,2.304e-07
3530.0,2.223e-07
3535.0,1.815e-07
3540.0,1.715e-07
3545.0,1.812e-07
3550.0,2.04e-07
3555.0,1.709e-07
3560.0,2.081e-07
3565.0,2.07e-07
3570.0,1.559e-07
3575.0,1.607e-07
3580.0,1.932e-07
3585.0,1.683e-07
3590.0,1.756e-07
3595.0,1.794e-07
3600.0,1.914e-07
3605.0,1.903e-07
3610.0,1.722e-07
3615.0,1.725e-07
3620.0,2.154e-07
3625.0,1.829e-07
3630.0,1.779e-07
3635.0,1.831e-07
3640.0,2.071e-07
3645.0,1.85e-07
3650.0,1.757e-07
3655.0,1.923e-07
3660.0,1.905e-07
3665.0,1.741e-07
3670.0,1.308e-07
3675.0,7.431e-08
3680.0,1.353e-07
3685.0,1.554e-07
3690.0,1.6e-07
3695.0,1.675e-07
3700.0,1.821e-07
3705.0,1.783e-07
3710.0,1.51e-07
3715.0,1.484e-07
3720.0,1.699e-07
3725.0,1.743e-07
3730.0,1.475e-07
3735.0,1.329e-07
3740.0,1.367e-07
3745.0,1.621e-07
3750.0,1.448e-07
3755.0,1.391e-07
3760.0,1.36e-07
3765.0,1.302e-07
3770.0,1.402e-07
3775.0,1.378e-07
3780.0,1.466e-07
3785.0,1.319e-07
3790.0,1.142e-07
3795.0,1.324e-07
3800.0,1.502e-07
3805.0,1.392e-07
3810.0,1.205e-07
3815.0,1.118e-07
3820.0,1.437e-07
3825.0,1.398e-07
3830.0,1.416e-07
3835.0,1.08e-07
3840.0,1.294e-07
3845.0,1.249e-07
3850.0,1.253e-07
3855.0,1.187e-07
3860.0,1.091e-07
3865.0,1.095e-07
3870.0,9.749e-08
3875.0,8.731e-08
3880.0,8.363e-08
3885.0,8.658e-08
3890.0,8.76e-08
3895.0,9.68e-08
3900.0,1.035e-07
3905.0,1.026e-07
3910.0,9.013e-08
3915.0,8.724e-08
3920.0,8.675e-08
3925.0,8.476e-08
3930.0,8.762e-08
3935.0,9.147e-08
3940.0,9.238e-08
3945.0,9.384e-08
3950.0,9.512e-08
3955.0,9.59e-08
3960.0,9.651e-08
3965.0,9.702e-08
3970.0,9.537e-08
3975.0,9.209e-08
3980.0,9.022e-08
3985.0,9.023e-08
3990.0,8.848e-08
3995.0,8.592e-08
4000.0,8.183e-08
