interpolation:linear
wavelength,value
280.0,2.5629999999999998e-23
280.5,8.709999999999998e-22
281.0,4.739e-21
281.5,1.556e-19
282.0,4.435e-19
282.5,1.01e-18
283.0,3.096e-18
283.5,5.022e-18
284.0,8.235e-17
284.5,2.424e-16
285.0,1.313e-15
285.5,3.743e-15
286.0,1.387e-14
286.5,5.611e-14
287.0,1.543e-13
287.5,5.744e-13
288.0,1.532e-12
288.5,4.326e-12
289.0,1.111e-11
289.5,3.292e-11
290.0,9.088e-11
290.5,1.854e-10
291.0,3.993e-10
291.5,1.153e-09
292.0,2.348e-09
292.5,3.258e-09
293.0,6.899e-09
293.5,1.654e-08
294.0,2.577e-08
294.5,2.921e-08
295.0,4.907e-08
295.5,8.411e-08
296.0,1.563e-07
296.5,2.1e-07
297.0,2.745e-07
297.5,6.967e-07
298.0,1.044e-06
298.5,1.007e-06
299.0,2.129e-06
299.5,3.266e-06
300.0,3.428e-06
300.5,4.724e-06
301.0,7.861e-06
301.5,1.157e-05
302.0,9.486e-06
302.5,1.736e-05
303.0,2.895e-05
303.5,3.513e-05
304.0,3.291e-05
304.5,4.918e-05
305.0,7.585e-05
305.5,8.851e-05
306.0,8.638e-05
306.5,0.0001093
307.0,0.0001696
307.5,0.0002375
308.0,0.000253
308.5,0.0003076
309.0,0.0002802
309.5,0.0003979
310.0,0.0004422
310.5,0.0007534
311.0,0.001028
311.5,0.001029
312.0,0.001237
312.5,0.001704
313.0,0.001973
313.5,0.001802
314.0,0.002618
314.5,0.002843
315.0,0.003873
315.5,0.002931
316.0,0.003022
316.5,0.005017
317.0,0.006208
317.5,0.006193
318.0,0.005335
318.5,0.008035
319.0,0.01052
319.5,0.00731
320.0,0.008619
320.5,0.01316
321.0,0.01406
321.5,0.01372
322.0,0.01201
322.5,0.01055
323.0,0.01192
323.5,0.0193
324.0,0.02316
324.5,0.02185
325.0,0.0153
325.5,0.02184
326.0,0.03252
326.5,0.03561
327.0,0.03431
327.5,0.03174
328.0,0.02494
328.5,0.03041
329.0,0.04075
329.5,0.04782
330.0,0.0469
330.5,0.03438
331.0,0.03396
331.5,0.03682
332.0,0.04361
332.5,0.04493
333.0,0.04371
333.5,0.03694
334.0,0.03738
334.5,0.04657
335.0,0.04571
335.5,0.05485
336.0,0.03792
336.5,0.04224
337.0,0.03353
337.5,0.04118
338.0,0.0428
338.5,0.05117
339.0,0.05084
339.5,0.04874
340.0,0.05531
340.5,0.05014
341.0,0.05037
341.5,0.04658
342.0,0.05576
342.5,0.05226
343.0,0.05715
343.5,0.0536
344.0,0.03839
344.5,0.03973
345.0,0.05302
345.5,0.05431
346.0,0.04626
346.5,0.05244
347.0,0.05601
347.5,0.0452
348.0,0.05176
348.5,0.05188
349.0,0.04816
349.5,0.04763
350.0,0.0589
350.5,0.06209
351.0,0.05528
351.5,0.05333
352.0,0.05749
352.5,0.04498
353.0,0.05675
353.5,0.06073
354.0,0.06308
354.5,0.06393
355.0,0.0636
355.5,0.05747
356.0,0.06013
356.5,0.05132
357.0,0.04236
357.5,0.05185
358.0,0.04108
358.5,0.03509
359.0,0.04902
359.5,0.06231
360.0,0.06605
360.5,0.0528
361.0,0.04814
361.5,0.05542
362.0,0.04791
362.5,0.06627
363.0,0.05949
363.5,0.05476
364.0,0.06692
364.5,0.05715
365.0,0.05816
365.5,0.07295
366.0,0.07725
366.5,0.07255
367.0,0.07061
367.5,0.07322
368.0,0.06402
368.5,0.06454
369.0,0.06965
369.5,0.07419
370.0,0.07904
370.5,0.06131
371.0,0.06546
371.5,0.08184
372.0,0.05427
372.5,0.06503
373.0,0.06609
373.5,0.04297
374.0,0.06238
374.5,0.05162
375.0,0.05014
375.5,0.0748
376.0,0.06196
376.5,0.06415
377.0,0.06787
377.5,0.07934
378.0,0.08593
378.5,0.08114
379.0,0.0669
379.5,0.06106
380.0,0.06342
380.5,0.07675
381.0,0.07684
381.5,0.06086
382.0,0.054
382.5,0.04599
383.0,0.04254
383.5,0.04094
384.0,0.04512
384.5,0.0663
385.0,0.06569
385.5,0.06112
386.0,0.0523
386.5,0.06863
387.0,0.05697
387.5,0.06392
388.0,0.05896
388.5,0.05822
389.0,0.06279
389.5,0.07597
390.0,0.07617
390.5,0.07002
391.0,0.08234
391.5,0.0839
392.0,0.07059
392.5,0.06313
393.0,0.03509
393.5,0.02548
394.0,0.0518
394.5,0.06579
395.0,0.08019
395.5,0.08136
396.0,0.07047
396.5,0.04115
397.0,0.03085
397.5,0.06267
398.0,0.08767
398.5,0.09051
399.0,0.09791
399.5,0.09747
400.0,0.1011
401.0,0.09962
402.0,0.1048
403.0,0.09934
404.0,0.09757
405.0,0.0973
406.0,0.09547
407.0,0.09364
408.0,0.09699
409.0,0.1035
410.0,0.09019
411.0,0.09743
412.0,0.1044
413.0,0.1015
414.0,0.1025
415.0,0.1024
416.0,0.1039
417.0,0.101
418.0,0.0988
419.0,0.09981
420.0,0.09907
421.0,0.1033
422.0,0.09779
423.0,0.09514
424.0,0.1002
425.0,0.09965
426.0,0.09675
427.0,0.09467
428.0,0.09197
429.0,0.08687
430.0,0.07577
431.0,0.07479
432.0,0.09614
433.0,0.09629
434.0,0.08909
435.0,0.09275
436.0,0.1042
437.0,0.1024
438.0,0.09278
439.0,0.09544
440.0,0.09799
441.0,0.101
442.0,0.1078
443.0,0.1045
444.0,0.1065
445.0,0.1039
446.0,0.09894
447.0,0.1066
448.0,0.1077
449.0,0.1076
450.0,0.11
451.0,0.1136
452.0,0.109
453.0,0.1022
454.0,0.1063
455.0,0.1064
456.0,0.1083
457.0,0.1094
458.0,0.1049
459.0,0.1036
460.0,0.1031
461.0,0.1049
462.0,0.1052
463.0,0.1042
464.0,0.1024
465.0,0.1009
466.0,0.1015
467.0,0.09915
468.0,0.09968
469.0,0.09953
470.0,0.09583
471.0,0.09529
472.0,0.1
473.0,0.09828
474.0,0.09789
475.0,0.09806
476.0,0.09433
477.0,0.09378
478.0,0.09553
479.0,0.09406
480.0,0.09339
481.0,0.09433
482.0,0.09425
483.0,0.09275
484.0,0.09062
485.0,0.0862
486.0,0.07522
487.0,0.07858
488.0,0.08577
489.0,0.08549
490.0,0.08936
491.0,0.08726
492.0,0.08194
493.0,0.0842
494.0,0.08463
495.0,0.0849
496.0,0.08488
497.0,0.08551
498.0,0.08076
499.0,0.08095
500.0,0.07778
501.0,0.07552
502.0,0.0736
503.0,0.07576
504.0,0.07307
505.0,0.07523
506.0,0.07726
507.0,0.07324
508.0,0.07079
509.0,0.07262
510.0,0.07204
511.0,0.07368
512.0,0.07408
513.0,0.06967
514.0,0.06871
515.0,0.06755
516.0,0.06694
517.0,0.0591
518.0,0.06174
519.0,0.06435
520.0,0.06622
521.0,0.06633
522.0,0.06583
523.0,0.06418
524.0,0.06583
525.0,0.06593
526.0,0.06237
527.0,0.05815
528.0,0.06087
529.0,0.06358
530.0,0.06214
531.0,0.06248
532.0,0.05984
533.0,0.05768
534.0,0.05904
535.0,0.06002
536.0,0.06027
537.0,0.05759
538.0,0.05826
539.0,0.05738
540.0,0.05461
541.0,0.05449
542.0,0.0557
543.0,0.05466
544.0,0.05516
545.0,0.0546
546.0,0.05442
547.0,0.05403
548.0,0.05303
549.0,0.05284
550.0,0.0531
551.0,0.0521
552.0,0.0521
553.0,0.05079
554.0,0.05161
555.0,0.05131
556.0,0.05022
557.0,0.04823
558.0,0.04738
559.0,0.04601
560.0,0.04612
561.0,0.04624
562.0,0.04542
563.0,0.04619
564.0,0.04453
565.0,0.04377
566.0,0.04276
567.0,0.04319
568.0,0.0424
569.0,0.04097
570.0,0.04065
571.0,0.04011
572.0,0.04068
573.0,0.04083
574.0,0.04046
575.0,0.03947
576.0,0.03894
577.0,0.03922
578.0,0.03852
579.0,0.03859
580.0,0.03927
581.0,0.0394
582.0,0.04006
583.0,0.04005
584.0,0.04027
585.0,0.03913
586.0,0.03814
587.0,0.03874
588.0,0.03747
589.0,0.03278
590.0,0.03409
591.0,0.03597
592.0,0.03516
593.0,0.03548
594.0,0.03487
595.0,0.03361
596.0,0.03482
597.0,0.03408
598.0,0.03374
599.0,0.03349
600.0,0.03332
601.0,0.03287
602.0,0.03246
603.0,0.03285
604.0,0.03327
605.0,0.03299
606.0,0.03279
607.0,0.03307
608.0,0.03267
609.0,0.03269
610.0,0.03243
611.0,0.03258
612.0,0.03246
613.0,0.03201
614.0,0.03154
615.0,0.03219
616.0,0.03108
617.0,0.03096
618.0,0.03209
619.0,0.0317
620.0,0.03181
621.0,0.03173
622.0,0.03125
623.0,0.03067
624.0,0.03005
625.0,0.02988
626.0,0.03023
627.0,0.03043
628.0,0.02779
629.0,0.02933
630.0,0.02855
631.0,0.0293
632.0,0.02891
633.0,0.02979
634.0,0.02949
635.0,0.02991
636.0,0.02948
637.0,0.02992
638.0,0.03019
639.0,0.02981
640.0,0.02948
641.0,0.02941
642.0,0.02924
643.0,0.02957
644.0,0.02943
645.0,0.02937
646.0,0.02853
647.0,0.02796
648.0,0.02792
649.0,0.02726
650.0,0.02751
651.0,0.02864
652.0,0.02718
653.0,0.0281
654.0,0.02772
655.0,0.0265
656.0,0.02348
657.0,0.02406
658.0,0.02695
659.0,0.02709
660.0,0.02714
661.0,0.02726
662.0,0.02721
663.0,0.0266
664.0,0.02688
665.0,0.02686
666.0,0.02681
667.0,0.02674
668.0,0.0267
669.0,0.02705
670.0,0.02685
671.0,0.02678
672.0,0.02649
673.0,0.02683
674.0,0.02665
675.0,0.02634
676.0,0.02644
677.0,0.02611
678.0,0.02611
679.0,0.02561
680.0,0.02573
681.0,0.02547
682.0,0.02534
683.0,0.02519
684.0,0.02496
685.0,0.02509
686.0,0.02484
687.0,0.01498
688.0,0.01788
689.0,0.0179
690.0,0.01892
691.0,0.02014
692.0,0.02109
693.0,0.02084
694.0,0.02068
695.0,0.0217
696.0,0.02167
697.0,0.02323
698.0,0.02278
699.0,0.02194
700.0,0.02159
701.0,0.0212
702.0,0.02135
703.0,0.02135
704.0,0.02206
705.0,0.02199
706.0,0.02193
707.0,0.02188
708.0,0.02183
709.0,0.02185
710.0,0.02171
711.0,0.02163
712.0,0.02153
713.0,0.02117
714.0,0.02117
715.0,0.02032
716.0,0.02023
717.0,0.01684
718.0,0.01535
719.0,0.01394
720.0,0.01452
721.0,0.01627
722.0,0.01896
723.0,0.01738
724.0,0.01535
725.0,0.015
726.0,0.01568
727.0,0.01595
728.0,0.01478
729.0,0.01545
730.0,0.01625
731.0,0.01544
732.0,0.01668
733.0,0.01778
734.0,0.0182
735.0,0.0177
736.0,0.01758
737.0,0.01758
738.0,0.01796
739.0,0.01753
740.0,0.01796
741.0,0.01773
742.0,0.01769
743.0,0.01806
744.0,0.01794
745.0,0.01788
746.0,0.01787
747.0,0.01783
748.0,0.01772
749.0,0.01744
750.0,0.01737
751.0,0.01714
752.0,0.01715
753.0,0.01718
754.0,0.01716
755.0,0.01699
756.0,0.01693
757.0,0.01688
758.0,0.0166
759.0,0.01606
760.0,0.00241
761.0,0.001284
762.0,0.00718
763.0,0.003588
764.0,0.005329
765.0,0.007081
766.0,0.0088
767.0,0.01144
768.0,0.01372
769.0,0.01412
770.0,0.01475
771.0,0.0149
772.0,0.01489
773.0,0.01492
774.0,0.01477
775.0,0.01459
776.0,0.01469
777.0,0.01442
778.0,0.01425
779.0,0.01419
780.0,0.01405
781.0,0.01401
782.0,0.01405
783.0,0.01376
784.0,0.01378
785.0,0.01363
786.0,0.01372
787.0,0.01334
788.0,0.01309
789.0,0.01303
790.0,0.01254
791.0,0.0127
792.0,0.01257
793.0,0.0123
794.0,0.01257
795.0,0.0127
796.0,0.0121
797.0,0.01205
798.0,0.01251
799.0,0.01235
800.0,0.01204
801.0,0.01191
802.0,0.01182
803.0,0.01165
804.0,0.01164
805.0,0.01159
806.0,0.01193
807.0,0.01172
808.0,0.01167
809.0,0.01133
810.0,0.01115
811.0,0.01106
812.0,0.01056
813.0,0.01027
814.0,0.008783
815.0,0.008703
816.0,0.007996
817.0,0.008111
818.0,0.007741
819.0,0.008781
820.0,0.008188
821.0,0.009839
822.0,0.009468
823.0,0.00604
824.0,0.009028
825.0,0.009538
826.0,0.009035
827.0,0.009615
828.0,0.007842
829.0,0.008905
830.0,0.008743
831.0,0.008734
832.0,0.008379
833.0,0.00902
834.0,0.008598
835.0,0.009619
836.0,0.009007
837.0,0.009559
838.0,0.009156
839.0,0.009321
840.0,0.009503
841.0,0.009292
842.0,0.00932
843.0,0.00933
844.0,0.009129
845.0,0.00943
846.0,0.009355
847.0,0.009151
848.0,0.009025
849.0,0.008723
850.0,0.008315
851.0,0.008729
852.0,0.008634
853.0,0.008288
854.0,0.007108
855.0,0.007803
856.0,0.008486
857.0,0.008661
858.0,0.008559
859.0,0.008545
860.0,0.008536
861.0,0.008458
862.0,0.008567
863.0,0.008742
864.0,0.008277
865.0,0.008177
866.0,0.007326
867.0,0.007617
868.0,0.008258
869.0,0.008056
870.0,0.008255
871.0,0.00811
872.0,0.00805
873.0,0.008002
874.0,0.007873
875.0,0.007679
876.0,0.007724
877.0,0.007771
878.0,0.007818
879.0,0.007665
880.0,0.00747
881.0,0.007315
882.0,0.007437
883.0,0.00744
884.0,0.007368
885.0,0.007389
886.0,0.006978
887.0,0.007049
888.0,0.007107
889.0,0.007187
890.0,0.007056
891.0,0.007036
892.0,0.006762
893.0,0.006477
894.0,0.006125
895.0,0.005653
896.0,0.005252
897.0,0.004382
898.0,0.00481
899.0,0.003524
900.0,0.004949
901.0,0.003685
902.0,0.004423
903.0,0.004411
904.0,0.00582
905.0,0.005564
906.0,0.005144
907.0,0.003981
908.0,0.004086
909.0,0.004469
910.0,0.003833
911.0,0.00416
912.0,0.004328
913.0,0.003841
914.0,0.003811
915.0,0.00412
916.0,0.003438
917.0,0.004478
918.0,0.003494
919.0,0.004553
920.0,0.004672
921.0,0.004847
922.0,0.004225
923.0,0.004655
924.0,0.004272
925.0,0.00416
926.0,0.00418
927.0,0.004741
928.0,0.003251
929.0,0.002917
930.0,0.002217
931.0,0.002084
932.0,0.001461
933.0,0.001173
934.0,0.000629
935.0,0.001195
936.0,0.0007331
937.0,0.0007394
938.0,0.0009083
939.0,0.001949
940.0,0.002373
941.0,0.001741
942.0,0.002023
943.0,0.001297
944.0,0.001379
945.0,0.00177
946.0,0.0008698
947.0,0.001758
948.0,0.001279
949.0,0.002388
950.0,0.0006235
951.0,0.002332
952.0,0.001204
953.0,0.001573
954.0,0.001956
955.0,0.001585
956.0,0.001567
957.0,0.001183
958.0,0.002251
959.0,0.001727
960.0,0.001936
961.0,0.002206
962.0,0.002076
963.0,0.002434
964.0,0.002203
965.0,0.002398
966.0,0.002394
967.0,0.002365
968.0,0.003405
969.0,0.00351
970.0,0.003183
971.0,0.003762
972.0,0.003543
973.0,0.002956
974.0,0.002788
975.0,0.002905
976.0,0.002692
977.0,0.003193
978.0,0.00296
979.0,0.00312
980.0,0.002901
981.0,0.0036
982.0,0.003385
983.0,0.003211
984.0,0.003732
985.0,0.003327
986.0,0.003811
987.0,0.003687
988.0,0.003672
989.0,0.003782
990.0,0.003612
991.0,0.003747
992.0,0.003762
993.0,0.003631
994.0,0.003742
995.0,0.003732
996.0,0.003695
997.0,0.003692
998.0,0.003659
999.0,0.003635
1000.0,0.003585
1001.0,0.003629
1002.0,0.003465
1003.0,0.003535
1004.0,0.003421
1005.0,0.003302
1006.0,0.00341
1007.0,0.003472
1008.0,0.003433
1009.0,0.003392
1010.0,0.00336
1011.0,0.003405
1012.0,0.003354
1013.0,0.003374
1014.0,0.003338
1015.0,0.003302
1016.0,0.003273
1017.0,0.003267
1018.0,0.003249
1019.0,0.003148
1020.0,0.003204
1021.0,0.003191
1022.0,0.003147
1023.0,0.003168
1024.0,0.003097
1025.0,0.003148
1026.0,0.003118
1027.0,0.0031
1028.0,0.003081
1029.0,0.003031
1030.0,0.003047
1031.0,0.003021
1032.0,0.003003
1033.0,0.002946
1034.0,0.002935
1035.0,0.002933
1036.0,0.002935
1037.0,0.002877
1038.0,0.002879
1039.0,0.002866
1040.0,0.002843
1041.0,0.002842
1042.0,0.002811
1043.0,0.002791
1044.0,0.002789
1045.0,0.00274
1046.0,0.002697
1047.0,0.002711
1048.0,0.002715
1049.0,0.002694
1050.0,0.00267
1051.0,0.002655
1052.0,0.002633
1053.0,0.0026
1054.0,0.002595
1055.0,0.002584
1056.0,0.002563
1057.0,0.002543
1058.0,0.002469
1059.0,0.002461
1060.0,0.002447
1061.0,0.002433
1062.0,0.002434
1063.0,0.0024
1064.0,0.00242
1065.0,0.002388
1066.0,0.002337
1067.0,0.002357
1068.0,0.002293
1069.0,0.002218
1070.0,0.002281
1071.0,0.002321
1072.0,0.002276
1073.0,0.002237
1074.0,0.002302
1075.0,0.00215
1076.0,0.002282
1077.0,0.002217
1078.0,0.002158
1079.0,0.002228
1080.0,0.002155
1081.0,0.002067
1082.0,0.002118
1083.0,0.002125
1084.0,0.00203
1085.0,0.002126
1086.0,0.001888
1087.0,0.001975
1088.0,0.00208
1089.0,0.001975
1090.0,0.00191
1091.0,0.002042
1092.0,0.002034
1093.0,0.001642
1094.0,0.001838
1095.0,0.001702
1096.0,0.001606
1097.0,0.001953
1098.0,0.00156
1099.0,0.001629
1100.0,0.001484
1101.0,0.001509
1102.0,0.001419
1103.0,0.001388
1104.0,0.001388
1105.0,0.00155
1106.0,0.001105
1107.0,0.001448
1108.0,0.001175
1109.0,0.001173
1110.0,0.001405
1111.0,0.000887
1112.0,0.001154
1113.0,0.0006864
1114.0,0.0007664
1115.0,0.0006273
1116.0,0.0004869
1117.0,0.0001718
1118.0,0.0005282
1119.0,0.0002541
1120.0,0.0003184
1121.0,0.000424
1122.0,0.0001741
1123.0,0.0002847
1124.0,0.0002393
1125.0,0.0003126
1126.0,0.0001053
1127.0,0.0003506
1128.0,0.0002051
1129.0,0.0002173
1130.0,0.0001415
1131.0,0.0006747
1132.0,0.000522
1133.0,0.0003219
1134.0,7.967e-05
1135.0,2.985e-05
1136.0,0.0002638
1137.0,0.0006462
1138.0,0.0004494
1139.0,0.0006953
1140.0,0.000567
1141.0,0.0004228
1142.0,0.0004886
1143.0,0.0007067
1144.0,0.0002351
1145.0,0.0002977
1146.0,0.0003199
1147.0,0.0001093
1148.0,0.0005967
1149.0,0.0004675
1150.0,0.0002491
1151.0,0.0004264
1152.0,0.0005306
1153.0,0.0005209
1154.0,0.0002801
1155.0,0.0006875
1156.0,0.0006103
1157.0,0.0006993
1158.0,0.0006891
1159.0,0.0007471
1160.0,0.0006318
1161.0,0.0008018
1162.0,0.0007995
1163.0,0.001142
1164.0,0.0009505
1165.0,0.0008765
1166.0,0.0008806
1167.0,0.0009675
1168.0,0.0009751
1169.0,0.001001
1170.0,0.001104
1171.0,0.00107
1172.0,0.0011
1173.0,0.00109
1174.0,0.0007331
1175.0,0.001071
1176.0,0.001206
1177.0,0.001133
1178.0,0.0008076
1179.0,0.001203
1180.0,0.001034
1181.0,0.001067
1182.0,0.0006902
1183.0,0.00105
1184.0,0.000963
1185.0,0.0009142
1186.0,0.001127
1187.0,0.001054
1188.0,0.0006841
1189.0,0.0009717
1190.0,0.00109
1191.0,0.001004
1192.0,0.001102
1193.0,0.00104
1194.0,0.001077
1195.0,0.0009966
1196.0,0.0009464
1197.0,0.001076
1198.0,0.0009715
1199.0,0.0007857
1200.0,0.001007
1201.0,0.000952
1202.0,0.0009567
1203.0,0.0009381
1204.0,0.0007994
1205.0,0.0009795
1206.0,0.001103
1207.0,0.0009351
1208.0,0.0009295
1209.0,0.000945
1210.0,0.0009927
1211.0,0.0009292
1212.0,0.0008935
1213.0,0.001031
1214.0,0.0009167
1215.0,0.0008949
1216.0,0.001022
1217.0,0.0009836
1218.0,0.001006
1219.0,0.0009849
1220.0,0.001001
1221.0,0.001016
1222.0,0.0009803
1223.0,0.0009647
1224.0,0.0009465
1225.0,0.0009934
1226.0,0.001004
1227.0,0.0008994
1228.0,0.001006
1229.0,0.000995
1230.0,0.0009706
1231.0,0.001008
1232.0,0.0009981
1233.0,0.0009435
1234.0,0.001002
1235.0,0.0009891
1236.0,0.0009959
1237.0,0.0009724
1238.0,0.0009863
1239.0,0.0009703
1240.0,0.000972
1241.0,0.0009588
1242.0,0.0009584
1243.0,0.0009478
1244.0,0.0009496
1245.0,0.0009517
1246.0,0.0009433
1247.0,0.0009351
1248.0,0.0009286
1249.0,0.0009311
1250.0,0.0009208
1251.0,0.0009026
1252.0,0.0009043
1253.0,0.0008864
1254.0,0.0008692
1255.0,0.0008928
1256.0,0.0008511
1257.0,0.000841
1258.0,0.0008648
1259.0,0.0008108
1260.0,0.0008149
1261.0,0.0007451
1262.0,0.0007105
1263.0,0.0007093
1264.0,0.0006335
1265.0,0.0007008
1266.0,0.0006603
1267.0,0.000678
1268.0,0.0006285
1269.0,0.0003541
1270.0,0.0006663
1271.0,0.0007242
1272.0,0.0007257
1273.0,0.0007134
1274.0,0.0007168
1275.0,0.0007284
1276.0,0.0007376
1277.0,0.0007461
1278.0,0.0007665
1279.0,0.000758
1280.0,0.0007456
1281.0,0.0007138
1282.0,0.0006928
1283.0,0.0007423
1284.0,0.0007566
1285.0,0.0007606
1286.0,0.0007723
1287.0,0.0007508
1288.0,0.0007509
1289.0,0.0007114
1290.0,0.0007399
1291.0,0.0007505
1292.0,0.0006805
1293.0,0.0007262
1294.0,0.0007178
1295.0,0.000704
1296.0,0.0006581
1297.0,0.0006118
1298.0,0.0006749
1299.0,0.0007151
1300.0,0.0005724
1301.0,0.000592
1302.0,0.0006667
1303.0,0.0005609
1304.0,0.0004561
1305.0,0.0006439
1306.0,0.0006382
1307.0,0.0004671
1308.0,0.0005557
1309.0,0.0006228
1310.0,0.0004514
1311.0,0.0005224
1312.0,0.0005061
1313.0,0.0004868
1314.0,0.0004246
1315.0,0.0004162
1316.0,0.000503
1317.0,0.0004698
1318.0,0.0005198
1319.0,0.0003813
1320.0,0.0003695
1321.0,0.0004397
1322.0,0.0004391
1323.0,0.0003137
1324.0,0.0003691
1325.0,0.0004775
1326.0,0.0003974
1327.0,0.0003743
1328.0,0.0003151
1329.0,0.0002269
1330.0,0.0003009
1331.0,0.0001738
1332.0,0.0001797
1333.0,0.0002517
1334.0,0.0002162
1335.0,0.0002997
1336.0,0.000231
1337.0,0.0002032
1338.0,0.0002191
1339.0,0.0002178
1340.0,0.0002125
1341.0,0.0002031
1342.0,0.0002135
1343.0,0.0001406
1344.0,8.388e-05
1345.0,0.0001205
1346.0,5.904e-05
1347.0,5.979e-05
1348.0,3.852e-06
1349.0,1.382e-05
1350.0,1.432e-05
1351.0,3.462e-06
1352.0,9.314e-07
1353.0,4.74e-08
1354.0,1.629e-07
1355.0,1.312e-09
1356.0,2.296e-08
1357.0,3.488e-08
1358.0,1.54e-09
1359.0,1.94e-10
1360.0,7.012e-10
1361.0,7.843e-13
1362.0,2.145e-15
1363.0,9.428e-10
1364.0,3.892e-10
1365.0,7.491e-16
1366.0,4.086e-09
1367.0,1.668e-09
1368.0,5.784e-18
1369.0,1.434e-10
1370.0,7.064e-11
1371.0,4.004e-12
1372.0,9.046e-10
1373.0,1.822e-08
1374.0,8.452e-08
1375.0,1.533e-07
1376.0,1.375e-07
1377.0,6.28e-08
1378.0,6.14e-07
1379.0,2.624e-08
1380.0,3.771e-08
1381.0,9.823e-10
1382.0,7.928e-10
1383.0,1.185e-11
1384.0,1.554e-10
1385.0,7.432e-10
1386.0,6.99e-10
1387.0,8.455e-08
1388.0,1.663e-09
1389.0,2.855e-07
1390.0,2.45e-07
1391.0,1.629e-07
1392.0,1.056e-08
1393.0,5.595e-08
1394.0,2.884e-08
1395.0,2.113e-10
1396.0,1.021e-12
1397.0,2.203e-08
1398.0,6.514e-07
1399.0,4.121e-07
1400.0,4.367e-13
1401.0,1.812e-12
1402.0,1.141e-06
1403.0,1.43e-06
1404.0,4.343e-07
1405.0,1.001e-10
1406.0,1.123e-06
1407.0,9.894e-08
1408.0,9.134e-07
1409.0,3.045e-07
1410.0,2.438e-07
1411.0,1.229e-06
1412.0,1.659e-06
1413.0,1.726e-05
1414.0,1.903e-07
1415.0,9.089e-08
1416.0,2.854e-05
1417.0,8.425e-06
1418.0,9.539e-06
1419.0,1.468e-06
1420.0,5.797e-06
1421.0,6.254e-06
1422.0,3.668e-05
1423.0,7.034e-06
1424.0,1.321e-05
1425.0,1.929e-05
1426.0,2.209e-05
1427.0,4.111e-05
1428.0,2.873e-06
1429.0,3.025e-05
1430.0,5.232e-05
1431.0,5.756e-05
1432.0,2.232e-06
1433.0,3.605e-05
1434.0,1.812e-05
1435.0,1.754e-05
1436.0,3.458e-05
1437.0,2.643e-05
1438.0,1.09e-05
1439.0,4.701e-05
1440.0,3.511e-05
1441.0,2.622e-05
1442.0,2.904e-05
1443.0,3.708e-05
1444.0,5.172e-05
1445.0,3.965e-05
1446.0,1.757e-05
1447.0,2.772e-05
1448.0,9.914e-05
1449.0,8.504e-05
1450.0,2.043e-05
1451.0,8.038e-06
1452.0,4.976e-05
1453.0,6.566e-05
1454.0,0.0001173
1455.0,5.323e-05
1456.0,7.1e-05
1457.0,9.737e-05
1458.0,0.0001178
1459.0,0.0001391
1460.0,7.012e-05
1461.0,7.175e-05
1462.0,0.0001079
1463.0,3.329e-05
1464.0,0.00013
1465.0,7.699e-05
1466.0,5.023e-05
1467.0,2.565e-05
1468.0,5.956e-05
1469.0,7.424e-05
1470.0,3.535e-05
1471.0,1.254e-05
1472.0,3.359e-05
1473.0,5.238e-05
1474.0,7.851e-05
1475.0,0.0001545
1476.0,5.223e-05
1477.0,5.207e-05
1478.0,4.888e-05
1479.0,9.63e-05
1480.0,4.458e-05
1481.0,9.071e-05
1482.0,4.374e-05
1483.0,0.0001196
1484.0,0.0001125
1485.0,9.882e-05
1486.0,9.565e-05
1487.0,4.204e-05
1488.0,7.63e-05
1489.0,0.0001578
1490.0,0.0001463
1491.0,0.000168
1492.0,0.0001322
1493.0,0.0001488
1494.0,0.0001726
1495.0,0.0001503
1496.0,0.0001389
1497.0,0.0002033
1498.0,0.0001592
1499.0,0.0001891
1500.0,0.000226
1501.0,0.0002363
1502.0,0.0001966
1503.0,0.0001606
1504.0,0.0001245
1505.0,0.0001544
1506.0,0.0002364
1507.0,0.0002252
1508.0,0.0002133
1509.0,0.0001543
1510.0,0.0002453
1511.0,0.0002331
1512.0,0.0002338
1513.0,0.0002071
1514.0,0.0001903
1515.0,0.0002396
1516.0,0.0002269
1517.0,0.0002176
1518.0,0.0002181
1519.0,0.0002099
1520.0,0.0002293
1521.0,0.0002524
1522.0,0.0002343
1523.0,0.0002555
1524.0,0.0002449
1525.0,0.0002284
1526.0,0.0002315
1527.0,0.0002305
1528.0,0.0002503
1529.0,0.0002358
1530.0,0.0002281
1531.0,0.0002355
1532.0,0.0002485
1533.0,0.0002487
1534.0,0.0002431
1535.0,0.0002399
1536.0,0.0002451
1537.0,0.0002381
1538.0,0.0002419
1539.0,0.0002363
1540.0,0.0002377
1541.0,0.0002384
1542.0,0.0002342
1543.0,0.000239
1544.0,0.0002345
1545.0,0.00024
1546.0,0.0002346
1547.0,0.0002315
1548.0,0.000231
1549.0,0.0002329
1550.0,0.0002305
1551.0,0.0002314
1552.0,0.0002283
1553.0,0.0002274
1554.0,0.0002245
1555.0,0.0002249
1556.0,0.0002241
1557.0,0.0002263
1558.0,0.0002245
1559.0,0.0002225
1560.0,0.0002234
1561.0,0.0002245
1562.0,0.0002206
1563.0,0.0002185
1564.0,0.0002189
1565.0,0.0002192
1566.0,0.0002155
1567.0,0.0002156
1568.0,0.0002127
1569.0,0.0002139
1570.0,0.0002152
1571.0,0.0002162
1572.0,0.0002143
1573.0,0.0002122
1574.0,0.0002039
1575.0,0.0002008
1576.0,0.0001967
1577.0,0.000191
1578.0,0.0001998
1579.0,0.0002004
1580.0,0.0002019
1581.0,0.0001985
1582.0,0.0001942
1583.0,0.0001945
1584.0,0.0001986
1585.0,0.0002006
1586.0,0.0001975
1587.0,0.0001938
1588.0,0.0001888
1589.0,0.0001826
1590.0,0.0001859
1591.0,0.0001902
1592.0,0.0001948
1593.0,0.000198
1594.0,0.0001967
1595.0,0.000194
1596.0,0.0001877
1597.0,0.0001915
1598.0,0.0001944
1599.0,0.0001918
1600.0,0.0001903
1601.0,0.0001869
1602.0,0.0001867
1603.0,0.0001887
1604.0,0.0001867
1605.0,0.0001862
1606.0,0.0001836
1607.0,0.0001848
1608.0,0.0001838
1609.0,0.0001788
1610.0,0.0001746
1611.0,0.0001772
1612.0,0.000179
1613.0,0.0001786
1614.0,0.0001783
1615.0,0.000174
1616.0,0.0001708
1617.0,0.0001735
1618.0,0.0001764
1619.0,0.0001722
1620.0,0.0001687
1621.0,0.00017
1622.0,0.0001723
1623.0,0.0001744
1624.0,0.0001717
1625.0,0.0001706
1626.0,0.0001705
1627.0,0.0001715
1628.0,0.0001704
1629.0,0.0001687
1630.0,0.0001672
1631.0,0.0001652
1632.0,0.0001648
1633.0,0.0001582
1634.0,0.0001628
1635.0,0.0001586
1636.0,0.0001579
1637.0,0.0001563
1638.0,0.0001442
1639.0,0.0001521
1640.0,0.000142
1641.0,0.0001499
1642.0,0.0001532
1643.0,0.00014
1644.0,0.0001526
1645.0,0.0001453
1646.0,0.0001394
1647.0,0.0001538
1648.0,0.0001384
1649.0,0.0001484
1650.0,0.0001495
1651.0,0.0001335
1652.0,0.0001466
1653.0,0.0001482
1654.0,0.0001364
1655.0,0.0001475
1656.0,0.0001432
1657.0,0.0001446
1658.0,0.0001473
1659.0,0.0001455
1660.0,0.0001465
1661.0,0.0001451
1662.0,0.0001395
1663.0,0.0001443
1664.0,0.0001422
1665.0,0.0001307
1666.0,9.965e-05
1667.0,0.0001288
1668.0,0.0001364
1669.0,0.0001368
1670.0,0.0001396
1671.0,0.0001346
1672.0,0.0001333
1673.0,0.0001363
1674.0,0.0001317
1675.0,0.0001297
1676.0,0.0001309
1677.0,0.0001297
1678.0,0.0001245
1679.0,0.0001291
1680.0,0.0001232
1681.0,0.0001178
1682.0,0.0001259
1683.0,0.0001283
1684.0,0.0001145
1685.0,0.0001291
1686.0,0.0001283
1687.0,0.0001211
1688.0,0.0001267
1689.0,0.0001251
1690.0,0.0001238
1691.0,0.0001091
1692.0,0.0001223
1693.0,0.0001268
1694.0,0.0001198
1695.0,0.0001244
1696.0,0.0001244
1697.0,9.88e-05
1698.0,0.0001222
1699.0,0.0001203
1700.0,0.0001157
1702.0,0.0001183
1705.0,0.0001126
1710.0,0.0001048
1715.0,0.0001041
1720.0,0.0001022
1725.0,9.26e-05
1730.0,9.082e-05
1735.0,8.375e-05
1740.0,8.364e-05
1745.0,7.722e-05
1750.0,8.195e-05
1755.0,7.362e-05
1760.0,7.652e-05
1765.0,5.995e-05
1770.0,6.353e-05
1775.0,4.885e-05
1780.0,4.063e-05
1785.0,2.941e-05
1790.0,3.401e-05
1795.0,1.585e-05
1800.0,1.093e-05
1805.0,4.308e-06
1810.0,2.797e-06
1815.0,8.089e-07
1820.0,2.024e-07
1825.0,2.641e-07
1830.0,6.436e-10
1835.0,9.746e-10
1840.0,5.687e-12
1845.0,6.08e-10
1850.0,2.745e-10
1855.0,2.623e-11
1860.0,1.503e-09
1865.0,2.095e-09
1870.0,1.147e-14
1875.0,2.071e-14
1880.0,1.103e-08
1885.0,5.878e-09
1890.0,3.224e-08
1895.0,1.871e-08
1900.0,7.996e-11
1905.0,5.446e-11
1910.0,2.638e-09
1915.0,2.57e-09
1920.0,6.739e-08
1925.0,1.583e-07
1930.0,9.144e-08
1935.0,6.97e-07
1940.0,6.921e-07
1945.0,2.852e-06
1950.0,5.564e-06
1955.0,4.948e-06
1960.0,8.767e-06
1965.0,1.297e-05
1970.0,1.858e-05
1975.0,2.109e-05
1980.0,2.118e-05
1985.0,2.29e-05
1990.0,2.355e-05
1995.0,2.493e-05
2000.0,2.639e-05
2005.0,2.143e-05
2010.0,3.248e-05
2015.0,2.416e-05
2020.0,2.602e-05
2025.0,2.873e-05
2030.0,2.567e-05
2035.0,2.854e-05
2040.0,2.657e-05
2045.0,2.729e-05
2050.0,2.777e-05
2055.0,2.608e-05
2060.0,2.486e-05
2065.0,2.522e-05
2070.0,2.461e-05
2075.0,2.527e-05
2080.0,2.437e-05
2085.0,2.4e-05
2090.0,2.413e-05
2095.0,2.312e-05
2100.0,2.107e-05
2105.0,2.29e-05
2110.0,2.155e-05
2115.0,2.21e-05
2120.0,2.032e-05
2125.0,2.056e-05
2130.0,2.077e-05
2135.0,2.077e-05
2140.0,2.08e-05
2145.0,2.039e-05
2150.0,1.86e-05
2155.0,1.845e-05
2160.0,1.815e-05
2165.0,1.633e-05
2170.0,1.738e-05
2175.0,1.662e-05
2180.0,1.709e-05
2185.0,1.489e-05
2190.0,1.614e-05
2195.0,1.581e-05
2200.0,1.333e-05
2205.0,1.423e-05
2210.0,1.569e-05
2215.0,1.467e-05
2220.0,1.493e-05
2225.0,1.428e-05
2230.0,1.424e-05
2235.0,1.369e-05
2240.0,1.34e-05
2245.0,1.26e-05
2250.0,1.291e-05
2255.0,1.169e-05
2260.0,1.136e-05
2265.0,1.169e-05
2270.0,1.07e-05
2275.0,1.041e-05
2280.0,1.103e-05
2285.0,1.005e-05
2290.0,9.979e-06
2295.0,9.608e-06
2300.0,8.903e-06
2305.0,8.928e-06
2310.0,1.005e-05
2315.0,8.636e-06
2320.0,7.339e-06
2325.0,8.426e-06
2330.0,8.272e-06
2335.0,8.474e-06
2340.0,6.214e-06
2345.0,7.055e-06
2350.0,5.423e-06
2355.0,6.342e-06
2360.0,6.762e-06
2365.0,6.688e-06
2370.0,3.626e-06
2375.0,5.647e-06
2380.0,5.376e-06
2385.0,3.695e-06
2390.0,4.429e-06
2395.0,4.882e-06
2400.0,5.359e-06
2405.0,3.951e-06
2410.0,3.927e-06
2415.0,3.047e-06
2420.0,2.935e-06
2425.0,3.706e-06
2430.0,5.148e-06
2435.0,1.524e-06
2440.0,4.955e-06
2445.0,2.149e-06
2450.0,1.341e-06
2455.0,2.591e-06
2460.0,3.491e-06
2465.0,2.41e-06
2470.0,1.58e-06
2475.0,1.53e-06
2480.0,7.141e-07
2485.0,4.645e-07
2490.0,2.671e-07
2495.0,2.31e-07
2500.0,5.733e-07
2505.0,1.165e-07
2510.0,1.714e-07
2515.0,3.629e-08
2520.0,2.04e-08
2525.0,2.327e-09
2530.0,1.62e-11
2535.0,3.582e-12
2540.0,8.498e-12
2545.0,6.591e-16
2550.0,2.672e-18
2555.0,1.282e-14
2560.0,3.849e-16
2565.0,8.617e-20
2570.0,2.566e-24
2575.0,1.6230000000000001e-34
2580.0,1.692e-28
2585.0,3.5370000000000003e-42
2590.0,2.207e-38
2595.0,4.294e-40
2600.0,3.535e-35
2605.0,3.9070000000000004e-42
2610.0,1.3449999999999999e-41
2615.0,1.4009999999999999e-45
2620.0,1.185e-35
2625.0,2.17e-35
2630.0,0.0
2635.0,1.13e-21
2640.0,2.4459999999999996e-22
2645.0,1.066e-24
2650.0,1.062e-25
2655.0,1.277e-34
2660.0,1.075e-31
2665.0,9.808999999999999e-45
2670.0,0.0
2675.0,5.185e-44
2680.0,2.18e-30
2685.0,2.083e-31
2690.0,7.794000000000001e-31
2695.0,3.057e-33
2700.0,8.906e-29
2705.0,2.5260000000000002e-26
2710.0,2.011e-31
2715.0,2.5399999999999997e-29
2720.0,0.0
2725.0,5.687e-27
2730.0,1.658e-24
2735.0,1.89e-26
2740.0,3.415e-32
2745.0,4.403e-27
2750.0,2.468e-26
2755.0,3.9710000000000002e-28
2760.0,5.949e-23
2765.0,2.792e-29
2770.0,1.3720000000000002e-26
2775.0,1.6939999999999998e-23
2780.0,7.886e-21
2785.0,2.961e-20
2790.0,6.751e-18
2795.0,1.485e-18
2800.0,4.741e-15
2805.0,8.864e-17
2810.0,3.555e-13
2815.0,1.06e-13
2820.0,1.295e-15
2825.0,1.137e-11
2830.0,2.471e-10
2835.0,3.404e-15
2840.0,7.283e-12
2845.0,2.521e-09
2850.0,4.362e-11
2855.0,1.743e-11
2860.0,9.059e-10
2865.0,6.68e-09
2870.0,1.694e-10
2875.0,1.626e-08
2880.0,1.025e-08
2885.0,1.688e-08
2890.0,7.175e-09
2895.0,1.223e-07
2900.0,3.409e-08
2905.0,3.946e-09
2910.0,1.247e-07
2915.0,5.294e-08
2920.0,1.314e-07
2925.0,4.683e-08
2930.0,2.835e-07
2935.0,3.126e-07
2940.0,6.997e-08
2945.0,6.008e-08
2950.0,2.425e-07
2955.0,1.08e-07
2960.0,2.143e-07
2965.0,3.628e-07
2970.0,1.421e-08
2975.0,3.6e-08
2980.0,5.602e-08
2985.0,3.297e-07
2990.0,4.997e-07
2995.0,1.896e-07
3000.0,3.605e-07
3005.0,1.227e-07
3010.0,3.156e-07
3015.0,2.446e-07
3020.0,2.21e-08
3025.0,3.371e-07
3030.0,2.655e-07
3035.0,1.009e-07
3040.0,7.888e-08
3045.0,1.694e-07
3050.0,3.84e-08
3055.0,9.394e-09
3060.0,2.638e-07
3065.0,1.116e-07
3070.0,6.273e-08
3075.0,2.458e-07
3080.0,1.428e-07
3085.0,6.305e-08
3090.0,8.575e-08
3095.0,2.109e-08
3100.0,1.714e-07
3105.0,3.211e-08
3110.0,2.688e-08
3115.0,8.065e-08
3120.0,3.956e-07
3125.0,1.161e-07
3130.0,2.307e-07
3135.0,4.627e-07
3140.0,1.228e-07
3145.0,1.204e-07
3150.0,2.544e-07
3155.0,2.141e-07
3160.0,3.553e-07
3165.0,5.595e-07
3170.0,4.954e-07
3175.0,3.469e-07
3180.0,4.101e-07
3185.0,2.861e-07
3190.0,1.499e-07
3195.0,8.32e-08
3200.0,1.174e-08
3205.0,7.67e-09
3210.0,3.196e-09
3215.0,1.299e-08
3220.0,4.561e-08
3225.0,5.245e-09
3230.0,8.711e-09
3235.0,2.443e-07
3240.0,1.11e-07
3245.0,2.107e-08
3250.0,7.772e-08
3255.0,3.337e-07
3260.0,3.324e-08
3265.0,7.197e-08
3270.0,3.389e-08
3275.0,2.047e-07
3280.0,8.688e-08
3285.0,3.78e-07
3290.0,2.835e-07
3295.0,3.483e-08
3300.0,5.175e-08
3305.0,1.189e-07
3310.0,1.129e-07
3315.0,1.635e-10
3320.0,1.031e-09
3325.0,9.477e-08
3330.0,1.443e-07
3335.0,2.793e-07
3340.0,1.028e-07
3345.0,9.972e-08
3350.0,2.493e-07
3355.0,1.009e-07
3360.0,1.55e-07
3365.0,2.19e-07
3370.0,1.057e-07
3375.0,2.574e-07
3380.0,1.392e-07
3385.0,2.212e-07
3390.0,2.906e-07
3395.0,2.82e-07
3400.0,3.824e-07
3405.0,1.159e-07
3410.0,2.043e-07
3415.0,1.981e-07
3420.0,3.986e-07
3425.0,2.835e-07
3430.0,2.387e-07
3435.0,3.418e-07
3440.0,2.173e-07
3445.0,3.251e-07
3450.0,3.169e-07
3455.0,2.253e-07
3460.0,3.618e-07
3465.0,2.658e-07
3470.0,3.495e-07
3475.0,3.018e-07
3480.0,3.091e-07
3485.0,3.37e-07
3490.0,2.798e-07
3495.0,3.384e-07
3500.0,3.265e-07
3505.0,3.219e-07
3510.0,3.256e-07
3515.0,3.088e-07
3520.0,3.288e-07
3525.0,3.047e-07
3530.0,2.94e-07
3535.0,2.387e-07
3540.0,2.254e-07
3545.0,2.385e-07
3550.0,2.701e-07
3555.0,2.253e-07
3560.0,2.76e-07
3565.0,2.747e-07
3570.0,2.055e-07
3575.0,2.115e-07
3580.0,2.562e-07
3585.0,2.222e-07
3590.0,2.324e-07
3595.0,2.381e-07
3600.0,2.547e-07
3605.0,2.53e-07
3610.0,2.283e-07
3615.0,2.293e-07
3620.0,2.879e-07
3625.0,2.433e-07
3630.0,2.369e-07
3635.0,2.44e-07
3640.0,2.77e-07
3645.0,2.467e-07
3650.0,2.341e-07
3655.0,2.57e-07
3660.0,2.545e-07
3665.0,2.322e-07
3670.0,1.732e-07
3675.0,9.731e-08
3680.0,1.79e-07
3685.0,2.068e-07
3690.0,2.132e-07
3695.0,2.239e-07
3700.0,2.444e-07
3705.0,2.391e-07
3710.0,2.016e-07
3715.0,1.982e-07
3720.0,2.28e-07
3725.0,2.343e-07
3730.0,1.973e-07
3735.0,1.773e-07
3740.0,1.827e-07
3745.0,2.18e-07
3750.0,1.942e-07
3755.0,1.864e-07
3760.0,1.818e-07
3765.0,1.742e-07
3770.0,1.883e-07
3775.0,1.85e-07
3780.0,1.972e-07
3785.0,1.766e-07
3790.0,1.525e-07
3795.0,1.778e-07
3800.0,2.026e-07
3805.0,1.873e-07
3810.0,1.611e-07
3815.0,1.494e-07
3820.0,1.94e-07
3825.0,1.884e-07
3830.0,1.912e-07
3835.0,1.442e-07
3840.0,1.744e-07
3845.0,1.682e-07
3850.0,1.688e-07
3855.0,1.597e-07
3860.0,1.46e-07
3865.0,1.467e-07
3870.0,1.297e-07
3875.0,1.155e-07
3880.0,1.105e-07
3885.0,1.146e-07
3890.0,1.161e-07
3895.0,1.292e-07
3900.0,1.388e-07
3905.0,1.378e-07
3910.0,1.199e-07
3915.0,1.159e-07
3920.0,1.153e-07
3925.0,1.126e-07
3930.0,1.167e-07
3935.0,1.223e-07
3940.0,1.237e-07
3945.0,1.26e-07
3950.0,1.28e-07
3955.0,1.292e-07
3960.0,1.302e-07
3965.0,1.311e-07
3970.0,1.288e-07
3975.0,1.241e-07
3980.0,1.215e-07
3985.0,1.217e-07
3990.0,1.193e-07
3995.0,1.157e-07
4000.0,1.1e-07
