interpolation:linear
wavelength,value
280.0,1.763e-23
280.5,6.154999999999999e-22
281.0,3.36e-21
281.5,1.132e-19
282.0,9.315e-19
282.5,3.611e-18
283.0,1.438e-17
283.5,2.228e-17
284.0,3.398e-16
284.5,9.824e-16
285.0,4.972e-16
285.5,2.74e-15
286.0,1.131e-14
286.5,5.338e-14
287.0,1.573e-13
287.5,6.265e-13
288.0,9.448e-12
288.5,1.856e-11
289.0,4.038e-11
289.5,1.079e-10
290.0,2.801e-10
290.5,5.461e-10
291.0,1.126e-09
291.5,3.123e-09
292.0,6.024e-09
292.5,7.98e-09
293.0,1.61e-08
293.5,3.67e-08
294.0,5.466e-08
294.5,1.095e-08
295.0,1.833e-08
295.5,2.891e-08
296.0,4.979e-08
296.5,6.241e-08
297.0,7.729e-08
297.5,1.82e-07
298.0,2.569e-07
298.5,2.375e-07
299.0,4.824e-07
299.5,6.939e-07
300.0,7.047e-07
300.5,9.41e-07
301.0,1.495e-06
301.5,2.118e-06
302.0,1.707e-06
302.5,1.917e-06
303.0,3.515e-06
303.5,4.468e-06
304.0,4.193e-06
304.5,6.315e-06
305.0,9.964e-06
305.5,1.188e-05
306.0,1.171e-05
306.5,1.508e-05
307.0,2.444e-05
307.5,3.596e-05
308.0,3.868e-05
308.5,4.835e-05
309.0,4.507e-05
309.5,4.868e-05
310.0,4.866e-05
310.5,7.897e-05
311.0,9.998e-05
311.5,9.708e-05
312.0,0.0001015
312.5,0.0001291
313.0,0.0001438
313.5,0.0001363
314.0,0.000182
314.5,0.0001915
315.0,0.0002603
315.5,0.0001988
316.0,0.0002025
316.5,0.0003341
317.0,0.0004139
317.5,0.0004138
318.0,0.0003556
318.5,0.0005354
319.0,0.0007028
319.5,0.0004877
320.0,0.0005755
320.5,0.0008822
321.0,0.0009521
321.5,0.000931
322.0,0.000807
322.5,0.0007094
323.0,0.0008078
323.5,0.002028
324.0,0.002465
324.5,0.002256
325.0,0.001041
325.5,0.0015
326.0,0.003501
326.5,0.003983
327.0,0.003788
327.5,0.003444
328.0,0.002572
328.5,0.00334
329.0,0.004792
329.5,0.005784
330.0,0.005552
330.5,0.003839
331.0,0.003747
331.5,0.004182
332.0,0.005349
332.5,0.005697
333.0,0.005444
333.5,0.004357
334.0,0.004371
334.5,0.005802
335.0,0.005897
335.5,0.007358
336.0,0.005091
336.5,0.00537
337.0,0.004158
337.5,0.005061
338.0,0.005532
338.5,0.006921
339.0,0.006906
339.5,0.006609
340.0,0.007185
340.5,0.006549
341.0,0.006858
341.5,0.00639
342.0,0.007668
342.5,0.007204
343.0,0.007853
343.5,0.00735
344.0,0.005054
344.5,0.005425
345.0,0.007305
345.5,0.007513
346.0,0.006417
346.5,0.00729
347.0,0.007768
347.5,0.006265
348.0,0.00721
348.5,0.007249
349.0,0.006742
349.5,0.006669
350.0,0.008258
350.5,0.008711
351.0,0.007747
351.5,0.007442
352.0,0.008055
352.5,0.006324
353.0,0.007997
353.5,0.008574
354.0,0.008919
354.5,0.009047
355.0,0.009003
355.5,0.008146
356.0,0.008536
356.5,0.007291
357.0,0.006023
357.5,0.00738
358.0,0.005855
358.5,0.005007
359.0,0.006998
359.5,0.00889
360.0,0.009436
360.5,0.007555
361.0,0.006898
361.5,0.007951
362.0,0.006882
362.5,0.009529
363.0,0.008562
363.5,0.007887
364.0,0.009649
364.5,0.008248
365.0,0.0084
365.5,0.01055
366.0,0.01118
366.5,0.01051
367.0,0.01024
367.5,0.01063
368.0,0.009303
368.5,0.009386
369.0,0.01014
369.5,0.01081
370.0,0.01153
370.5,0.008954
371.0,0.00957
371.5,0.01198
372.0,0.007952
372.5,0.009537
373.0,0.009703
373.5,0.006314
374.0,0.009177
374.5,0.007602
375.0,0.007392
375.5,0.01104
376.0,0.009154
376.5,0.009488
377.0,0.01005
377.5,0.01176
378.0,0.01275
378.5,0.01205
379.0,0.00995
379.5,0.009091
380.0,0.009454
380.5,0.01145
381.0,0.01148
381.5,0.009102
382.0,0.008085
382.5,0.006894
383.0,0.006384
383.5,0.006151
384.0,0.006787
384.5,0.009985
385.0,0.009905
385.5,0.009227
386.0,0.007904
386.5,0.01038
387.0,0.008631
387.5,0.009696
388.0,0.008955
388.5,0.008853
389.0,0.009559
389.5,0.01158
390.0,0.01162
390.5,0.0107
391.0,0.0126
391.5,0.01285
392.0,0.01083
392.5,0.009697
393.0,0.005397
393.5,0.003924
394.0,0.007986
394.5,0.01016
395.0,0.01239
395.5,0.01259
396.0,0.01092
396.5,0.006387
397.0,0.004794
397.5,0.009753
398.0,0.01366
398.5,0.01412
399.0,0.0153
399.5,0.01525
400.0,0.01584
401.0,0.01564
402.0,0.01651
403.0,0.01569
404.0,0.01545
405.0,0.01545
406.0,0.0152
407.0,0.01495
408.0,0.01553
409.0,0.01662
410.0,0.01452
411.0,0.01573
412.0,0.01691
413.0,0.0165
414.0,0.0167
415.0,0.01674
416.0,0.01702
417.0,0.0166
418.0,0.01629
419.0,0.01652
420.0,0.01644
421.0,0.0172
422.0,0.01633
423.0,0.01594
424.0,0.01684
425.0,0.01679
426.0,0.01635
427.0,0.01606
428.0,0.01566
429.0,0.01484
430.0,0.01298
431.0,0.01286
432.0,0.01658
433.0,0.01666
434.0,0.01547
435.0,0.01616
436.0,0.01821
437.0,0.01795
438.0,0.01632
439.0,0.01683
440.0,0.01733
441.0,0.01791
442.0,0.01918
443.0,0.01867
444.0,0.01909
445.0,0.0187
446.0,0.01788
447.0,0.01934
448.0,0.01961
449.0,0.01964
450.0,0.02015
451.0,0.02087
452.0,0.02011
453.0,0.01892
454.0,0.01975
455.0,0.01983
456.0,0.02025
457.0,0.02051
458.0,0.01972
459.0,0.01952
460.0,0.01949
461.0,0.01988
462.0,0.02002
463.0,0.01991
464.0,0.01964
465.0,0.01944
466.0,0.01964
467.0,0.01926
468.0,0.01942
469.0,0.01945
470.0,0.01879
471.0,0.01876
472.0,0.01976
473.0,0.0195
474.0,0.0195
475.0,0.01959
476.0,0.0189
477.0,0.01883
478.0,0.01923
479.0,0.01896
480.0,0.01886
481.0,0.01909
482.0,0.01913
483.0,0.0189
484.0,0.01855
485.0,0.01773
486.0,0.01555
487.0,0.01631
488.0,0.01787
489.0,0.01787
490.0,0.01873
491.0,0.01834
492.0,0.01728
493.0,0.01782
494.0,0.01798
495.0,0.0181
496.0,0.01815
497.0,0.01833
498.0,0.01734
499.0,0.01741
500.0,0.01676
501.0,0.0163
502.0,0.01592
503.0,0.01642
504.0,0.01589
505.0,0.01638
506.0,0.01689
507.0,0.01607
508.0,0.0156
509.0,0.01607
510.0,0.01601
511.0,0.01643
512.0,0.01657
513.0,0.01563
514.0,0.01546
515.0,0.01524
516.0,0.01514
517.0,0.0134
518.0,0.01405
519.0,0.01468
520.0,0.01515
521.0,0.01521
522.0,0.01513
523.0,0.01479
524.0,0.01519
525.0,0.01524
526.0,0.01444
527.0,0.01348
528.0,0.01413
529.0,0.01478
530.0,0.01447
531.0,0.01458
532.0,0.01401
533.0,0.01355
534.0,0.01392
535.0,0.0142
536.0,0.01432
537.0,0.01374
538.0,0.01395
539.0,0.01378
540.0,0.01316
541.0,0.01317
542.0,0.0135
543.0,0.01328
544.0,0.01344
545.0,0.01334
546.0,0.01334
547.0,0.01328
548.0,0.01308
549.0,0.01307
550.0,0.01318
551.0,0.01297
552.0,0.01301
553.0,0.01273
554.0,0.01297
555.0,0.01293
556.0,0.01269
557.0,0.01222
558.0,0.01203
559.0,0.01171
560.0,0.01175
561.0,0.01181
562.0,0.01163
563.0,0.01185
564.0,0.01145
565.0,0.01128
566.0,0.01105
567.0,0.01119
568.0,0.01102
569.0,0.0107
570.0,0.01064
571.0,0.01051
572.0,0.01071
573.0,0.01078
574.0,0.01071
575.0,0.01049
576.0,0.01039
577.0,0.0105
578.0,0.01035
579.0,0.0104
580.0,0.01061
581.0,0.01069
582.0,0.0109
583.0,0.01093
584.0,0.01102
585.0,0.01075
586.0,0.01051
587.0,0.01072
588.0,0.01043
589.0,0.009188
590.0,0.009571
591.0,0.0101
592.0,0.009906
593.0,0.009995
594.0,0.009847
595.0,0.009527
596.0,0.009851
597.0,0.009658
598.0,0.009562
599.0,0.009508
600.0,0.009464
601.0,0.009346
602.0,0.009254
603.0,0.009391
604.0,0.009541
605.0,0.009497
606.0,0.00947
607.0,0.009587
608.0,0.009508
609.0,0.009554
610.0,0.009517
611.0,0.009599
612.0,0.009602
613.0,0.009511
614.0,0.009407
615.0,0.009636
616.0,0.009339
617.0,0.009337
618.0,0.009713
619.0,0.009626
620.0,0.009692
621.0,0.009706
622.0,0.009594
623.0,0.009449
624.0,0.009283
625.0,0.009263
626.0,0.0094
627.0,0.009502
628.0,0.008804
629.0,0.009252
630.0,0.009042
631.0,0.009277
632.0,0.009182
633.0,0.009479
634.0,0.009408
635.0,0.009573
636.0,0.009463
637.0,0.009637
638.0,0.009751
639.0,0.009659
640.0,0.009586
641.0,0.009596
642.0,0.009569
643.0,0.009712
644.0,0.009692
645.0,0.009703
646.0,0.009473
647.0,0.009328
648.0,0.009343
649.0,0.009154
650.0,0.009236
651.0,0.009644
652.0,0.009205
653.0,0.009519
654.0,0.009418
655.0,0.009038
656.0,0.008021
657.0,0.008246
658.0,0.009248
659.0,0.009327
660.0,0.009364
661.0,0.009437
662.0,0.009464
663.0,0.009275
664.0,0.009384
665.0,0.009393
666.0,0.009404
667.0,0.009404
668.0,0.009415
669.0,0.009562
670.0,0.009517
671.0,0.009518
672.0,0.009438
673.0,0.009583
674.0,0.009545
675.0,0.009456
676.0,0.009517
677.0,0.00942
678.0,0.009443
679.0,0.009285
680.0,0.009349
681.0,0.009274
682.0,0.009247
683.0,0.009212
684.0,0.009149
685.0,0.009217
686.0,0.009143
687.0,0.005931
688.0,0.006909
689.0,0.006927
690.0,0.007257
691.0,0.007644
692.0,0.00795
693.0,0.00789
694.0,0.007843
695.0,0.008205
696.0,0.008211
697.0,0.008796
698.0,0.008625
699.0,0.008351
700.0,0.00824
701.0,0.008121
702.0,0.008172
703.0,0.008198
704.0,0.008473
705.0,0.008461
706.0,0.008448
707.0,0.00844
708.0,0.00845
709.0,0.008464
710.0,0.008413
711.0,0.008396
712.0,0.008372
713.0,0.008239
714.0,0.008262
715.0,0.007956
716.0,0.007921
717.0,0.006738
718.0,0.00619
719.0,0.005669
720.0,0.005912
721.0,0.00655
722.0,0.007514
723.0,0.006973
724.0,0.006252
725.0,0.006129
726.0,0.006384
727.0,0.00651
728.0,0.00606
729.0,0.0063
730.0,0.006634
731.0,0.006329
732.0,0.006792
733.0,0.007208
734.0,0.007385
735.0,0.007206
736.0,0.007153
737.0,0.007174
738.0,0.007326
739.0,0.007161
740.0,0.007346
741.0,0.007255
742.0,0.007248
743.0,0.007401
744.0,0.007354
745.0,0.007336
746.0,0.00734
747.0,0.007333
748.0,0.007293
749.0,0.00719
750.0,0.00717
751.0,0.007083
752.0,0.007102
753.0,0.007125
754.0,0.007126
755.0,0.007067
756.0,0.007047
757.0,0.007036
758.0,0.006925
759.0,0.0067
760.0,0.001133
761.0,0.0006047
762.0,0.003322
763.0,0.001691
764.0,0.002501
765.0,0.003287
766.0,0.003991
767.0,0.005
768.0,0.005812
769.0,0.005957
770.0,0.006216
771.0,0.006289
772.0,0.006292
773.0,0.006309
774.0,0.00625
775.0,0.006173
776.0,0.006218
777.0,0.006105
778.0,0.006038
779.0,0.006018
780.0,0.005964
781.0,0.005952
782.0,0.005977
783.0,0.005862
784.0,0.005879
785.0,0.005822
786.0,0.005867
787.0,0.005715
788.0,0.005625
789.0,0.005599
790.0,0.005402
791.0,0.005461
792.0,0.005412
793.0,0.005305
794.0,0.005424
795.0,0.005486
796.0,0.005241
797.0,0.005244
798.0,0.005422
799.0,0.005355
800.0,0.005218
801.0,0.005173
802.0,0.00514
803.0,0.005064
804.0,0.005066
805.0,0.005045
806.0,0.005197
807.0,0.005102
808.0,0.005077
809.0,0.004929
810.0,0.004863
811.0,0.004801
812.0,0.004625
813.0,0.004499
814.0,0.003903
815.0,0.003862
816.0,0.003592
817.0,0.00364
818.0,0.003494
819.0,0.003893
820.0,0.00368
821.0,0.004316
822.0,0.004162
823.0,0.002774
824.0,0.00401
825.0,0.004234
826.0,0.004008
827.0,0.004253
828.0,0.003539
829.0,0.003976
830.0,0.00391
831.0,0.003905
832.0,0.003767
833.0,0.004002
834.0,0.003841
835.0,0.004253
836.0,0.004024
837.0,0.004229
838.0,0.004062
839.0,0.004145
840.0,0.004229
841.0,0.004138
842.0,0.004143
843.0,0.00415
844.0,0.004064
845.0,0.004193
846.0,0.004165
847.0,0.004072
848.0,0.004018
849.0,0.003884
850.0,0.0037
851.0,0.003883
852.0,0.003844
853.0,0.003689
854.0,0.003169
855.0,0.003476
856.0,0.003785
857.0,0.003864
858.0,0.003822
859.0,0.00382
860.0,0.003819
861.0,0.003787
862.0,0.003839
863.0,0.003919
864.0,0.003714
865.0,0.003672
866.0,0.003291
867.0,0.003424
868.0,0.003715
869.0,0.003626
870.0,0.003717
871.0,0.003654
872.0,0.003629
873.0,0.003608
874.0,0.003553
875.0,0.003467
876.0,0.003489
877.0,0.003511
878.0,0.003534
879.0,0.003466
880.0,0.003377
881.0,0.003309
882.0,0.003363
883.0,0.003364
884.0,0.003333
885.0,0.003341
886.0,0.003156
887.0,0.003192
888.0,0.003217
889.0,0.003255
890.0,0.003199
891.0,0.003193
892.0,0.003061
893.0,0.002944
894.0,0.002796
895.0,0.002604
896.0,0.002436
897.0,0.002075
898.0,0.002257
899.0,0.001692
900.0,0.002292
901.0,0.001764
902.0,0.002063
903.0,0.002084
904.0,0.002663
905.0,0.002554
906.0,0.002378
907.0,0.001899
908.0,0.001941
909.0,0.002093
910.0,0.001828
911.0,0.001956
912.0,0.002055
913.0,0.001837
914.0,0.00183
915.0,0.001958
916.0,0.001659
917.0,0.002101
918.0,0.001684
919.0,0.002128
920.0,0.002167
921.0,0.00224
922.0,0.001979
923.0,0.00215
924.0,0.002007
925.0,0.001953
926.0,0.001967
927.0,0.002201
928.0,0.001583
929.0,0.001436
930.0,0.001121
931.0,0.001058
932.0,0.0007574
933.0,0.0006124
934.0,0.0003324
935.0,0.0006226
936.0,0.0003858
937.0,0.0003891
938.0,0.000477
939.0,0.0009923
940.0,0.00119
941.0,0.0008918
942.0,0.001029
943.0,0.0006722
944.0,0.0007065
945.0,0.0009046
946.0,0.0004566
947.0,0.0009024
948.0,0.0006607
949.0,0.001204
950.0,0.0003297
951.0,0.001179
952.0,0.0006278
953.0,0.0008102
954.0,0.0009926
955.0,0.0008148
956.0,0.0007894
957.0,0.0006174
958.0,0.001115
959.0,0.0008788
960.0,0.0009822
961.0,0.001102
962.0,0.001038
963.0,0.001198
964.0,0.001092
965.0,0.001183
966.0,0.001182
967.0,0.001174
968.0,0.001615
969.0,0.001657
970.0,0.001525
971.0,0.00175
972.0,0.001668
973.0,0.001421
974.0,0.001343
975.0,0.001398
976.0,0.001316
977.0,0.001519
978.0,0.001418
979.0,0.001488
980.0,0.001394
981.0,0.001682
982.0,0.001595
983.0,0.00152
984.0,0.001736
985.0,0.001567
986.0,0.001776
987.0,0.00171
988.0,0.001707
989.0,0.001759
990.0,0.001673
991.0,0.001742
992.0,0.00175
993.0,0.001686
994.0,0.001742
995.0,0.001738
996.0,0.001722
997.0,0.001721
998.0,0.001706
999.0,0.001696
1000.0,0.001675
1001.0,0.001694
1002.0,0.001619
1003.0,0.001652
1004.0,0.001597
1005.0,0.001541
1006.0,0.001595
1007.0,0.001623
1008.0,0.001605
1009.0,0.001587
1010.0,0.001574
1011.0,0.001591
1012.0,0.00157
1013.0,0.001578
1014.0,0.001561
1015.0,0.001545
1016.0,0.001532
1017.0,0.001529
1018.0,0.001521
1019.0,0.001474
1020.0,0.001501
1021.0,0.001495
1022.0,0.001475
1023.0,0.001486
1024.0,0.001453
1025.0,0.001476
1026.0,0.001461
1027.0,0.001455
1028.0,0.001446
1029.0,0.001422
1030.0,0.001429
1031.0,0.001418
1032.0,0.001409
1033.0,0.001383
1034.0,0.001378
1035.0,0.001378
1036.0,0.001378
1037.0,0.001352
1038.0,0.001352
1039.0,0.001346
1040.0,0.001335
1041.0,0.001335
1042.0,0.001321
1043.0,0.001311
1044.0,0.00131
1045.0,0.001287
1046.0,0.001267
1047.0,0.001274
1048.0,0.001276
1049.0,0.001266
1050.0,0.001255
1051.0,0.001248
1052.0,0.001238
1053.0,0.001222
1054.0,0.00122
1055.0,0.001215
1056.0,0.001205
1057.0,0.001196
1058.0,0.001161
1059.0,0.001157
1060.0,0.001151
1061.0,0.001145
1062.0,0.001146
1063.0,0.001129
1064.0,0.001139
1065.0,0.001124
1066.0,0.0011
1067.0,0.00111
1068.0,0.00108
1069.0,0.001045
1070.0,0.001077
1071.0,0.001093
1072.0,0.001074
1073.0,0.001056
1074.0,0.001085
1075.0,0.001015
1076.0,0.001076
1077.0,0.001047
1078.0,0.001019
1079.0,0.001051
1080.0,0.001019
1081.0,0.0009771
1082.0,0.001001
1083.0,0.001003
1084.0,0.000964
1085.0,0.001006
1086.0,0.000903
1087.0,0.0009343
1088.0,0.0009834
1089.0,0.0009371
1090.0,0.0009104
1091.0,0.0009653
1092.0,0.0009617
1093.0,0.0007921
1094.0,0.0008699
1095.0,0.000818
1096.0,0.0007767
1097.0,0.0009248
1098.0,0.0007593
1099.0,0.0007882
1100.0,0.0007249
1101.0,0.0007345
1102.0,0.0006959
1103.0,0.0006835
1104.0,0.0006842
1105.0,0.0007502
1106.0,0.0005623
1107.0,0.000707
1108.0,0.0005895
1109.0,0.0005892
1110.0,0.0006885
1111.0,0.0004598
1112.0,0.0005798
1113.0,0.0003629
1114.0,0.0004044
1115.0,0.0003339
1116.0,0.0002641
1117.0,9.502e-05
1118.0,0.0002859
1119.0,0.00014
1120.0,0.0001756
1121.0,0.0002331
1122.0,9.657e-05
1123.0,0.0001571
1124.0,0.0001322
1125.0,0.0001722
1126.0,5.854e-05
1127.0,0.000193
1128.0,0.0001138
1129.0,0.0001205
1130.0,7.853e-05
1131.0,0.0003643
1132.0,0.0002843
1133.0,0.0001779
1134.0,4.433e-05
1135.0,1.661e-05
1136.0,0.0001463
1137.0,0.0003502
1138.0,0.0002455
1139.0,0.0003681
1140.0,0.0003054
1141.0,0.000231
1142.0,0.0002656
1143.0,0.0003771
1144.0,0.0001298
1145.0,0.0001648
1146.0,0.0001772
1147.0,6.094e-05
1148.0,0.0003209
1149.0,0.0002545
1150.0,0.000137
1151.0,0.0002333
1152.0,0.0002873
1153.0,0.0002799
1154.0,0.0001549
1155.0,0.0003642
1156.0,0.0003263
1157.0,0.0003661
1158.0,0.0003609
1159.0,0.0003887
1160.0,0.0003306
1161.0,0.0004091
1162.0,0.0004105
1163.0,0.0005583
1164.0,0.0004758
1165.0,0.0004438
1166.0,0.0004428
1167.0,0.0004812
1168.0,0.0004849
1169.0,0.0004965
1170.0,0.0005418
1171.0,0.0005239
1172.0,0.0005386
1173.0,0.0005335
1174.0,0.0003748
1175.0,0.0005216
1176.0,0.0005824
1177.0,0.0005495
1178.0,0.0004048
1179.0,0.0005795
1180.0,0.0005106
1181.0,0.0005203
1182.0,0.000352
1183.0,0.0005107
1184.0,0.0004779
1185.0,0.000456
1186.0,0.0005453
1187.0,0.0005125
1188.0,0.000351
1189.0,0.0004755
1190.0,0.0005278
1191.0,0.000493
1192.0,0.0005328
1193.0,0.0005094
1194.0,0.0005217
1195.0,0.0004869
1196.0,0.0004649
1197.0,0.0005177
1198.0,0.000472
1199.0,0.0003918
1200.0,0.0004879
1201.0,0.000465
1202.0,0.0004663
1203.0,0.0004562
1204.0,0.0004007
1205.0,0.0004767
1206.0,0.0005288
1207.0,0.0004557
1208.0,0.0004497
1209.0,0.0004578
1210.0,0.0004802
1211.0,0.0004526
1212.0,0.0004385
1213.0,0.0004961
1214.0,0.0004481
1215.0,0.0004371
1216.0,0.0004923
1217.0,0.0004754
1218.0,0.0004851
1219.0,0.0004762
1220.0,0.0004822
1221.0,0.0004882
1222.0,0.0004721
1223.0,0.0004654
1224.0,0.0004588
1225.0,0.0004765
1226.0,0.0004817
1227.0,0.0004355
1228.0,0.000484
1229.0,0.0004766
1230.0,0.000466
1231.0,0.0004837
1232.0,0.0004793
1233.0,0.0004523
1234.0,0.0004812
1235.0,0.0004746
1236.0,0.0004782
1237.0,0.0004661
1238.0,0.0004736
1239.0,0.0004661
1240.0,0.000467
1241.0,0.000461
1242.0,0.0004605
1243.0,0.0004556
1244.0,0.0004563
1245.0,0.0004575
1246.0,0.0004536
1247.0,0.0004494
1248.0,0.0004465
1249.0,0.0004476
1250.0,0.0004425
1251.0,0.0004336
1252.0,0.0004349
1253.0,0.0004258
1254.0,0.000418
1255.0,0.0004295
1256.0,0.0004091
1257.0,0.0004044
1258.0,0.0004156
1259.0,0.000391
1260.0,0.0003927
1261.0,0.0003634
1262.0,0.0003495
1263.0,0.0003491
1264.0,0.0003191
1265.0,0.0003447
1266.0,0.0003292
1267.0,0.0003349
1268.0,0.0003153
1269.0,0.0001953
1270.0,0.0003302
1271.0,0.000352
1272.0,0.0003523
1273.0,0.000347
1274.0,0.0003481
1275.0,0.0003527
1276.0,0.0003564
1277.0,0.0003597
1278.0,0.0003684
1279.0,0.0003644
1280.0,0.0003593
1281.0,0.0003438
1282.0,0.0003329
1283.0,0.0003567
1284.0,0.0003645
1285.0,0.0003662
1286.0,0.0003712
1287.0,0.0003627
1288.0,0.0003622
1289.0,0.0003433
1290.0,0.0003569
1291.0,0.000362
1292.0,0.0003299
1293.0,0.0003511
1294.0,0.0003465
1295.0,0.0003391
1296.0,0.0003203
1297.0,0.0003008
1298.0,0.0003266
1299.0,0.0003443
1300.0,0.0002818
1301.0,0.0002891
1302.0,0.0003216
1303.0,0.000278
1304.0,0.0002317
1305.0,0.0003108
1306.0,0.0003078
1307.0,0.0002356
1308.0,0.0002726
1309.0,0.0003017
1310.0,0.0002292
1311.0,0.0002596
1312.0,0.0002505
1313.0,0.0002432
1314.0,0.0002153
1315.0,0.0002119
1316.0,0.0002505
1317.0,0.0002372
1318.0,0.0002578
1319.0,0.0001973
1320.0,0.00019
1321.0,0.000222
1322.0,0.0002222
1323.0,0.0001661
1324.0,0.0001908
1325.0,0.0002379
1326.0,0.000203
1327.0,0.0001926
1328.0,0.0001649
1329.0,0.0001234
1330.0,0.0001602
1331.0,9.633e-05
1332.0,9.919e-05
1333.0,0.0001377
1334.0,0.0001164
1335.0,0.0001596
1336.0,0.0001258
1337.0,0.0001109
1338.0,0.0001196
1339.0,0.0001188
1340.0,0.0001152
1341.0,0.0001121
1342.0,0.0001174
1343.0,7.912e-05
1344.0,4.725e-05
1345.0,6.796e-05
1346.0,3.353e-05
1347.0,3.397e-05
1348.0,2.19e-06
1349.0,7.856e-06
1350.0,8.144e-06
1351.0,1.969e-06
1352.0,5.296e-07
1353.0,2.696e-08
1354.0,9.265e-08
1355.0,7.461e-10
1356.0,1.306e-08
1357.0,1.984e-08
1358.0,8.761e-10
1359.0,1.104e-10
1360.0,3.989e-10
1361.0,4.463e-13
1362.0,1.221e-15
1363.0,5.365e-10
1364.0,2.215e-10
1365.0,4.263e-16
1366.0,2.325e-09
1367.0,9.493e-10
1368.0,3.293e-18
1369.0,8.165e-11
1370.0,4.021e-11
1371.0,2.28e-12
1372.0,5.15e-10
1373.0,1.038e-08
1374.0,4.813e-08
1375.0,8.73e-08
1376.0,7.83e-08
1377.0,3.576e-08
1378.0,3.497e-07
1379.0,1.495e-08
1380.0,2.148e-08
1381.0,5.595e-10
1382.0,4.517e-10
1383.0,6.753e-12
1384.0,8.855e-11
1385.0,4.234e-10
1386.0,3.983e-10
1387.0,4.818e-08
1388.0,9.477e-10
1389.0,1.627e-07
1390.0,1.396e-07
1391.0,9.287e-08
1392.0,6.02e-09
1393.0,3.189e-08
1394.0,1.644e-08
1395.0,1.205e-10
1396.0,5.823e-13
1397.0,1.256e-08
1398.0,3.714e-07
1399.0,2.35e-07
1400.0,2.49e-13
1401.0,1.033e-12
1402.0,6.509e-07
1403.0,8.154e-07
1404.0,2.477e-07
1405.0,5.708e-11
1406.0,6.404e-07
1407.0,5.644e-08
1408.0,5.211e-07
1409.0,1.737e-07
1410.0,1.391e-07
1411.0,7.014e-07
1412.0,9.463e-07
1413.0,9.85e-06
1414.0,1.086e-07
1415.0,5.187e-08
1416.0,1.628e-05
1417.0,4.808e-06
1418.0,5.444e-06
1419.0,8.379e-07
1420.0,3.309e-06
1421.0,3.57e-06
1422.0,2.093e-05
1423.0,4.015e-06
1424.0,7.537e-06
1425.0,1.101e-05
1426.0,1.26e-05
1427.0,2.344e-05
1428.0,1.64e-06
1429.0,1.726e-05
1430.0,2.978e-05
1431.0,3.275e-05
1432.0,1.275e-06
1433.0,2.055e-05
1434.0,1.034e-05
1435.0,1.002e-05
1436.0,1.973e-05
1437.0,1.509e-05
1438.0,6.227e-06
1439.0,2.682e-05
1440.0,2.002e-05
1441.0,1.497e-05
1442.0,1.659e-05
1443.0,2.116e-05
1444.0,2.946e-05
1445.0,2.263e-05
1446.0,1.004e-05
1447.0,1.583e-05
1448.0,5.607e-05
1449.0,4.818e-05
1450.0,1.166e-05
1451.0,4.592e-06
1452.0,2.836e-05
1453.0,3.738e-05
1454.0,6.574e-05
1455.0,3.027e-05
1456.0,4.035e-05
1457.0,5.499e-05
1458.0,6.568e-05
1459.0,7.733e-05
1460.0,3.961e-05
1461.0,4.078e-05
1462.0,6.056e-05
1463.0,1.896e-05
1464.0,7.228e-05
1465.0,4.325e-05
1466.0,2.864e-05
1467.0,1.465e-05
1468.0,3.39e-05
1469.0,4.206e-05
1470.0,2.021e-05
1471.0,7.166e-06
1472.0,1.921e-05
1473.0,2.986e-05
1474.0,4.431e-05
1475.0,8.509e-05
1476.0,2.97e-05
1477.0,2.967e-05
1478.0,2.771e-05
1479.0,5.401e-05
1480.0,2.541e-05
1481.0,5.113e-05
1482.0,2.484e-05
1483.0,6.65e-05
1484.0,6.224e-05
1485.0,5.494e-05
1486.0,5.372e-05
1487.0,2.394e-05
1488.0,4.279e-05
1489.0,8.54e-05
1490.0,7.885e-05
1491.0,8.953e-05
1492.0,7.282e-05
1493.0,8.048e-05
1494.0,9.123e-05
1495.0,8.049e-05
1496.0,7.499e-05
1497.0,0.0001045
1498.0,8.431e-05
1499.0,9.841e-05
1500.0,0.0001151
1501.0,0.0001204
1502.0,0.0001012
1503.0,8.458e-05
1504.0,6.699e-05
1505.0,8.113e-05
1506.0,0.0001196
1507.0,0.0001147
1508.0,0.0001091
1509.0,8.175e-05
1510.0,0.0001237
1511.0,0.0001181
1512.0,0.0001182
1513.0,0.0001061
1514.0,9.879e-05
1515.0,0.000121
1516.0,0.000115
1517.0,0.0001108
1518.0,0.0001111
1519.0,0.0001073
1520.0,0.0001162
1521.0,0.0001271
1522.0,0.0001183
1523.0,0.0001285
1524.0,0.0001227
1525.0,0.0001154
1526.0,0.0001169
1527.0,0.0001167
1528.0,0.0001256
1529.0,0.0001183
1530.0,0.0001147
1531.0,0.0001186
1532.0,0.0001251
1533.0,0.0001253
1534.0,0.0001231
1535.0,0.0001214
1536.0,0.0001236
1537.0,0.0001207
1538.0,0.0001221
1539.0,0.0001195
1540.0,0.0001199
1541.0,0.0001203
1542.0,0.0001185
1543.0,0.0001208
1544.0,0.0001189
1545.0,0.0001213
1546.0,0.0001183
1547.0,0.0001169
1548.0,0.0001166
1549.0,0.0001177
1550.0,0.0001164
1551.0,0.0001167
1552.0,0.0001155
1553.0,0.0001148
1554.0,0.0001133
1555.0,0.0001136
1556.0,0.0001131
1557.0,0.0001143
1558.0,0.0001134
1559.0,0.0001123
1560.0,0.0001127
1561.0,0.0001132
1562.0,0.0001113
1563.0,0.0001101
1564.0,0.0001103
1565.0,0.0001106
1566.0,0.0001086
1567.0,0.0001086
1568.0,0.0001071
1569.0,0.0001078
1570.0,0.0001083
1571.0,0.0001088
1572.0,0.0001078
1573.0,0.0001066
1574.0,0.0001024
1575.0,0.0001009
1576.0,9.861e-05
1577.0,9.578e-05
1578.0,0.0001001
1579.0,0.0001003
1580.0,0.0001011
1581.0,9.936e-05
1582.0,9.72e-05
1583.0,9.728e-05
1584.0,9.954e-05
1585.0,0.0001005
1586.0,9.903e-05
1587.0,9.708e-05
1588.0,9.474e-05
1589.0,9.164e-05
1590.0,9.321e-05
1591.0,9.541e-05
1592.0,9.765e-05
1593.0,9.923e-05
1594.0,9.867e-05
1595.0,9.727e-05
1596.0,9.403e-05
1597.0,9.579e-05
1598.0,9.74e-05
1599.0,9.613e-05
1600.0,9.542e-05
1601.0,9.363e-05
1602.0,9.349e-05
1603.0,9.459e-05
1604.0,9.359e-05
1605.0,9.338e-05
1606.0,9.206e-05
1607.0,9.268e-05
1608.0,9.195e-05
1609.0,8.962e-05
1610.0,8.751e-05
1611.0,8.881e-05
1612.0,8.976e-05
1613.0,8.942e-05
1614.0,8.937e-05
1615.0,8.719e-05
1616.0,8.561e-05
1617.0,8.676e-05
1618.0,8.837e-05
1619.0,8.614e-05
1620.0,8.452e-05
1621.0,8.517e-05
1622.0,8.627e-05
1623.0,8.737e-05
1624.0,8.593e-05
1625.0,8.533e-05
1626.0,8.531e-05
1627.0,8.588e-05
1628.0,8.524e-05
1629.0,8.448e-05
1630.0,8.367e-05
1631.0,8.258e-05
1632.0,8.248e-05
1633.0,7.89e-05
1634.0,8.15e-05
1635.0,7.91e-05
1636.0,7.892e-05
1637.0,7.819e-05
1638.0,7.19e-05
1639.0,7.611e-05
1640.0,7.1e-05
1641.0,7.491e-05
1642.0,7.665e-05
1643.0,6.992e-05
1644.0,7.649e-05
1645.0,7.252e-05
1646.0,6.966e-05
1647.0,7.703e-05
1648.0,6.912e-05
1649.0,7.416e-05
1650.0,7.472e-05
1651.0,6.689e-05
1652.0,7.331e-05
1653.0,7.438e-05
1654.0,6.824e-05
1655.0,7.381e-05
1656.0,7.151e-05
1657.0,7.226e-05
1658.0,7.388e-05
1659.0,7.288e-05
1660.0,7.331e-05
1661.0,7.288e-05
1662.0,6.989e-05
1663.0,7.237e-05
1664.0,7.142e-05
1665.0,6.539e-05
1666.0,5.23e-05
1667.0,6.453e-05
1668.0,6.833e-05
1669.0,6.883e-05
1670.0,7.019e-05
1671.0,6.76e-05
1672.0,6.705e-05
1673.0,6.853e-05
1674.0,6.606e-05
1675.0,6.517e-05
1676.0,6.597e-05
1677.0,6.514e-05
1678.0,6.25e-05
1679.0,6.505e-05
1680.0,6.195e-05
1681.0,5.906e-05
1682.0,6.34e-05
1683.0,6.467e-05
1684.0,5.755e-05
1685.0,6.501e-05
1686.0,6.466e-05
1687.0,6.089e-05
1688.0,6.369e-05
1689.0,6.3e-05
1690.0,6.234e-05
1691.0,5.543e-05
1692.0,6.154e-05
1693.0,6.392e-05
1694.0,6.028e-05
1695.0,6.262e-05
1696.0,6.276e-05
1697.0,5.068e-05
1698.0,6.146e-05
1699.0,6.066e-05
1700.0,5.831e-05
1702.0,5.952e-05
1705.0,5.67e-05
1710.0,5.301e-05
1715.0,5.281e-05
1720.0,5.182e-05
1725.0,4.694e-05
1730.0,4.651e-05
1735.0,4.266e-05
1740.0,4.283e-05
1745.0,4.003e-05
1750.0,4.151e-05
1755.0,3.802e-05
1760.0,3.888e-05
1765.0,3.139e-05
1770.0,3.302e-05
1775.0,2.613e-05
1780.0,2.205e-05
1785.0,1.634e-05
1790.0,1.873e-05
1795.0,9.096e-06
1800.0,6.258e-06
1805.0,2.485e-06
1810.0,1.613e-06
1815.0,4.668e-07
1820.0,1.168e-07
1825.0,1.524e-07
1830.0,3.715e-10
1835.0,5.625e-10
1840.0,3.283e-12
1845.0,3.51e-10
1850.0,1.584e-10
1855.0,1.514e-11
1860.0,8.679e-10
1865.0,1.21e-09
1870.0,6.62e-15
1875.0,1.196e-14
1880.0,6.371e-09
1885.0,3.395e-09
1890.0,1.862e-08
1895.0,1.081e-08
1900.0,4.619e-11
1905.0,3.146e-11
1910.0,1.524e-09
1915.0,1.485e-09
1920.0,3.894e-08
1925.0,9.148e-08
1930.0,5.284e-08
1935.0,4.028e-07
1940.0,3.999e-07
1945.0,1.647e-06
1950.0,3.203e-06
1955.0,2.857e-06
1960.0,5.022e-06
1965.0,7.295e-06
1970.0,1.021e-05
1975.0,1.147e-05
1980.0,1.141e-05
1985.0,1.218e-05
1990.0,1.26e-05
1995.0,1.317e-05
2000.0,1.386e-05
2005.0,1.149e-05
2010.0,1.673e-05
2015.0,1.273e-05
2020.0,1.363e-05
2025.0,1.49e-05
2030.0,1.346e-05
2035.0,1.482e-05
2040.0,1.387e-05
2045.0,1.422e-05
2050.0,1.45e-05
2055.0,1.36e-05
2060.0,1.3e-05
2065.0,1.32e-05
2070.0,1.286e-05
2075.0,1.322e-05
2080.0,1.278e-05
2085.0,1.258e-05
2090.0,1.262e-05
2095.0,1.209e-05
2100.0,1.107e-05
2105.0,1.196e-05
2110.0,1.126e-05
2115.0,1.155e-05
2120.0,1.061e-05
2125.0,1.075e-05
2130.0,1.086e-05
2135.0,1.086e-05
2140.0,1.086e-05
2145.0,1.064e-05
2150.0,9.712e-06
2155.0,9.612e-06
2160.0,9.458e-06
2165.0,8.522e-06
2170.0,9.067e-06
2175.0,8.685e-06
2180.0,8.901e-06
2185.0,7.818e-06
2190.0,8.435e-06
2195.0,8.26e-06
2200.0,7.04e-06
2205.0,7.452e-06
2210.0,8.195e-06
2215.0,7.667e-06
2220.0,7.785e-06
2225.0,7.448e-06
2230.0,7.424e-06
2235.0,7.146e-06
2240.0,6.997e-06
2245.0,6.604e-06
2250.0,6.759e-06
2255.0,6.166e-06
2260.0,6.013e-06
2265.0,6.157e-06
2270.0,5.693e-06
2275.0,5.553e-06
2280.0,5.819e-06
2285.0,5.354e-06
2290.0,5.314e-06
2295.0,5.121e-06
2300.0,4.797e-06
2305.0,4.801e-06
2310.0,5.305e-06
2315.0,4.636e-06
2320.0,4.015e-06
2325.0,4.492e-06
2330.0,4.431e-06
2335.0,4.511e-06
2340.0,3.423e-06
2345.0,3.841e-06
2350.0,3.008e-06
2355.0,3.474e-06
2360.0,3.665e-06
2365.0,3.608e-06
2370.0,2.065e-06
2375.0,3.107e-06
2380.0,2.954e-06
2385.0,2.076e-06
2390.0,2.46e-06
2395.0,2.695e-06
2400.0,2.934e-06
2405.0,2.198e-06
2410.0,2.185e-06
2415.0,1.729e-06
2420.0,1.662e-06
2425.0,2.083e-06
2430.0,2.837e-06
2435.0,8.765e-07
2440.0,2.726e-06
2445.0,1.23e-06
2450.0,7.731e-07
2455.0,1.471e-06
2460.0,1.976e-06
2465.0,1.382e-06
2470.0,9.128e-07
2475.0,8.842e-07
2480.0,4.134e-07
2485.0,2.692e-07
2490.0,1.548e-07
2495.0,1.339e-07
2500.0,3.323e-07
2505.0,6.756e-08
2510.0,9.934e-08
2515.0,2.104e-08
2520.0,1.183e-08
2525.0,1.349e-09
2530.0,9.391e-12
2535.0,2.077e-12
2540.0,4.927e-12
2545.0,3.821e-16
2550.0,1.549e-18
2555.0,7.436e-15
2560.0,2.232e-16
2565.0,4.996e-20
2570.0,1.488e-24
2575.0,9.411e-35
2580.0,9.814e-29
2585.0,2.0520000000000002e-42
2590.0,1.28e-38
2595.0,2.49e-40
2600.0,2.05e-35
2605.0,2.2660000000000002e-42
2610.0,7.798000000000001e-42
2615.0,1.4009999999999999e-45
2620.0,6.872e-36
2625.0,1.259e-35
2630.0,0.0
2635.0,6.553999999999999e-22
2640.0,1.4189999999999998e-22
2645.0,6.184e-25
2650.0,6.160000000000001e-26
2655.0,7.408000000000001e-35
2660.0,6.237e-32
2665.0,5.605e-45
2670.0,0.0
2675.0,2.943e-44
2680.0,1.265e-30
2685.0,1.208e-31
2690.0,4.52e-31
2695.0,1.773e-33
2700.0,5.166e-29
2705.0,1.4650000000000002e-26
2710.0,1.167e-31
2715.0,1.473e-29
2720.0,0.0
2725.0,3.298e-27
2730.0,9.616e-25
2735.0,1.0970000000000001e-26
2740.0,1.981e-32
2745.0,2.554e-27
2750.0,1.431e-26
2755.0,2.303e-28
2760.0,3.451e-23
2765.0,1.6189999999999998e-29
2770.0,7.959e-27
2775.0,9.825e-24
2780.0,4.574e-21
2785.0,1.718e-20
2790.0,3.916e-18
2795.0,8.616e-19
2800.0,2.75e-15
2805.0,5.142e-17
2810.0,2.062e-13
2815.0,6.151e-14
2820.0,7.515e-16
2825.0,6.597e-12
2830.0,1.434e-10
2835.0,1.975e-15
2840.0,4.225e-12
2845.0,1.462e-09
2850.0,2.531e-11
2855.0,1.011e-11
2860.0,5.256e-10
2865.0,3.875e-09
2870.0,9.828e-11
2875.0,9.433e-09
2880.0,5.945e-09
2885.0,9.792e-09
2890.0,4.163e-09
2895.0,7.096e-08
2900.0,1.978e-08
2905.0,2.289e-09
2910.0,7.238e-08
2915.0,3.072e-08
2920.0,7.622e-08
2925.0,2.717e-08
2930.0,1.645e-07
2935.0,1.813e-07
2940.0,4.06e-08
2945.0,3.486e-08
2950.0,1.407e-07
2955.0,6.266e-08
2960.0,1.243e-07
2965.0,2.105e-07
2970.0,8.247e-09
2975.0,2.089e-08
2980.0,3.251e-08
2985.0,1.912e-07
2990.0,2.896e-07
2995.0,1.1e-07
3000.0,2.091e-07
3005.0,7.119e-08
3010.0,1.83e-07
3015.0,1.419e-07
3020.0,1.283e-08
3025.0,1.956e-07
3030.0,1.54e-07
3035.0,5.857e-08
3040.0,4.577e-08
3045.0,9.831e-08
3050.0,2.228e-08
3055.0,5.452e-09
3060.0,1.53e-07
3065.0,6.478e-08
3070.0,3.64e-08
3075.0,1.426e-07
3080.0,8.286e-08
3085.0,3.659e-08
3090.0,4.976e-08
3095.0,1.224e-08
3100.0,9.944e-08
3105.0,1.863e-08
3110.0,1.56e-08
3115.0,4.68e-08
3120.0,2.293e-07
3125.0,6.736e-08
3130.0,1.337e-07
3135.0,2.68e-07
3140.0,7.127e-08
3145.0,6.989e-08
3150.0,1.475e-07
3155.0,1.241e-07
3160.0,2.058e-07
3165.0,3.231e-07
3170.0,2.86e-07
3175.0,2.01e-07
3180.0,2.371e-07
3185.0,1.659e-07
3190.0,8.697e-08
3195.0,4.828e-08
3200.0,6.814e-09
3205.0,4.452e-09
3210.0,1.855e-09
3215.0,7.54e-09
3220.0,2.647e-08
3225.0,3.044e-09
3230.0,5.056e-09
3235.0,1.417e-07
3240.0,6.441e-08
3245.0,1.223e-08
3250.0,4.51e-08
3255.0,1.932e-07
3260.0,1.929e-08
3265.0,4.177e-08
3270.0,1.967e-08
3275.0,1.187e-07
3280.0,5.042e-08
3285.0,2.183e-07
3290.0,1.642e-07
3295.0,2.021e-08
3300.0,3.004e-08
3305.0,6.897e-08
3310.0,6.549e-08
3315.0,9.493e-11
3320.0,5.982e-10
3325.0,5.5e-08
3330.0,8.354e-08
3335.0,1.616e-07
3340.0,5.957e-08
3345.0,5.786e-08
3350.0,1.442e-07
3355.0,5.853e-08
3360.0,8.983e-08
3365.0,1.266e-07
3370.0,6.135e-08
3375.0,1.486e-07
3380.0,8.074e-08
3385.0,1.279e-07
3390.0,1.681e-07
3395.0,1.629e-07
3400.0,2.198e-07
3405.0,6.728e-08
3410.0,1.181e-07
3415.0,1.148e-07
3420.0,2.289e-07
3425.0,1.64e-07
3430.0,1.383e-07
3435.0,1.965e-07
3440.0,1.259e-07
3445.0,1.871e-07
3450.0,1.826e-07
3455.0,1.303e-07
3460.0,2.074e-07
3465.0,1.536e-07
3470.0,2.003e-07
3475.0,1.737e-07
3480.0,1.778e-07
3485.0,1.932e-07
3490.0,1.612e-07
3495.0,1.937e-07
3500.0,1.871e-07
3505.0,1.845e-07
3510.0,1.864e-07
3515.0,1.767e-07
3520.0,1.873e-07
3525.0,1.738e-07
3530.0,1.678e-07
3535.0,1.371e-07
3540.0,1.296e-07
3545.0,1.369e-07
3550.0,1.539e-07
3555.0,1.291e-07
3560.0,1.569e-07
3565.0,1.562e-07
3570.0,1.178e-07
3575.0,1.214e-07
3580.0,1.457e-07
3585.0,1.271e-07
3590.0,1.325e-07
3595.0,1.352e-07
3600.0,1.443e-07
3605.0,1.436e-07
3610.0,1.3e-07
3615.0,1.3e-07
3620.0,1.62e-07
3625.0,1.379e-07
3630.0,1.341e-07
3635.0,1.38e-07
3640.0,1.558e-07
3645.0,1.395e-07
3650.0,1.324e-07
3655.0,1.447e-07
3660.0,1.433e-07
3665.0,1.313e-07
3670.0,9.871e-08
3675.0,5.617e-08
3680.0,1.021e-07
3685.0,1.171e-07
3690.0,1.206e-07
3695.0,1.261e-07
3700.0,1.369e-07
3705.0,1.341e-07
3710.0,1.137e-07
3715.0,1.117e-07
3720.0,1.277e-07
3725.0,1.31e-07
3730.0,1.11e-07
3735.0,1.002e-07
3740.0,1.029e-07
3745.0,1.218e-07
3750.0,1.09e-07
3755.0,1.047e-07
3760.0,1.024e-07
3765.0,9.809e-08
3770.0,1.054e-07
3775.0,1.036e-07
3780.0,1.102e-07
3785.0,9.931e-08
3790.0,8.609e-08
3795.0,9.96e-08
3800.0,1.128e-07
3805.0,1.046e-07
3810.0,9.076e-08
3815.0,8.414e-08
3820.0,1.078e-07
3825.0,1.049e-07
3830.0,1.062e-07
3835.0,8.14e-08
3840.0,9.727e-08
3845.0,9.396e-08
3850.0,9.419e-08
3855.0,8.936e-08
3860.0,8.222e-08
3865.0,8.255e-08
3870.0,7.362e-08
3875.0,6.597e-08
3880.0,6.32e-08
3885.0,6.543e-08
3890.0,6.619e-08
3895.0,7.307e-08
3900.0,7.798e-08
3905.0,7.737e-08
3910.0,6.807e-08
3915.0,6.59e-08
3920.0,6.553e-08
3925.0,6.402e-08
3930.0,6.616e-08
3935.0,6.903e-08
3940.0,6.97e-08
3945.0,7.075e-08
3950.0,7.167e-08
3955.0,7.222e-08
3960.0,7.266e-08
3965.0,7.301e-08
3970.0,7.179e-08
3975.0,6.937e-08
3980.0,6.798e-08
3985.0,6.796e-08
3990.0,6.666e-08
3995.0,6.476e-08
4000.0,6.17e-08
