interpolation:linear
wavelength,value
280.0,3.3710000000000004e-20
280.5,5.791e-19
281.0,2.425e-18
281.5,4.106e-17
282.0,2.218e-16
282.5,6.451e-16
283.0,2.104e-15
283.5,3.329e-15
284.0,4.449e-14
284.5,1.106e-13
285.0,3.201e-13
285.5,1.984e-12
286.0,8.323e-12
286.5,4.113e-11
287.0,1.253e-10
287.5,5.441e-10
288.0,1.188e-09
288.5,3.951e-09
289.0,1.107e-08
289.5,3.43e-08
290.0,9.478e-08
290.5,1.892e-07
291.0,3.978e-07
291.5,1.131e-06
292.0,2.206e-06
292.5,2.797e-06
293.0,5.332e-06
293.5,1.128e-05
294.0,1.52e-05
294.5,3.818e-05
295.0,6.355e-05
295.5,9.642e-05
296.0,0.0001653
296.5,0.0002064
297.0,0.0002547
297.5,0.0005989
298.0,0.0008451
298.5,0.000781
299.0,0.001587
299.5,0.0023
300.0,0.002343
300.5,0.003142
301.0,0.005048
301.5,0.007234
302.0,0.005848
302.5,0.01025
303.0,0.01607
303.5,0.01863
304.0,0.01665
304.5,0.02207
305.0,0.02858
305.5,0.02964
306.0,0.02751
306.5,0.03212
307.0,0.04178
307.5,0.04914
308.0,0.05064
308.5,0.05621
309.0,0.05502
309.5,0.05678
310.0,0.05424
310.5,0.08542
311.0,0.1028
311.5,0.09711
312.0,0.08932
312.5,0.1027
313.0,0.1078
313.5,0.1067
314.0,0.1248
314.5,0.1018
315.0,0.1311
315.5,0.1132
316.0,0.09229
316.5,0.125
317.0,0.1544
317.5,0.1622
318.0,0.1214
318.5,0.14
319.0,0.1603
319.5,0.1367
320.0,0.1656
320.5,0.1934
321.0,0.1635
321.5,0.1552
322.0,0.1728
322.5,0.1491
323.0,0.143
323.5,0.1725
324.0,0.1992
324.5,0.2039
325.0,0.175
325.5,0.2181
326.0,0.2677
326.5,0.262
327.0,0.2614
327.5,0.2532
328.0,0.2297
328.5,0.2333
329.0,0.2716
329.5,0.3045
330.0,0.3072
330.5,0.2489
331.0,0.2537
331.5,0.2532
332.0,0.2671
332.5,0.2606
333.0,0.2597
333.5,0.237
334.0,0.242
334.5,0.2735
335.0,0.2535
335.5,0.3076
336.0,0.2118
336.5,0.2371
337.0,0.1947
337.5,0.2414
338.0,0.2316
338.5,0.2758
339.0,0.2695
339.5,0.2592
340.0,0.2927
340.5,0.2622
341.0,0.2627
341.5,0.2369
342.0,0.2808
342.5,0.2605
343.0,0.2871
343.5,0.2704
344.0,0.1935
344.5,0.2022
345.0,0.2617
345.5,0.2643
346.0,0.2226
346.5,0.2503
347.0,0.2688
347.5,0.2167
348.0,0.244
348.5,0.2418
349.0,0.2228
349.5,0.2196
350.0,0.2701
350.5,0.2834
351.0,0.2527
351.5,0.2466
352.0,0.2619
352.5,0.2024
353.0,0.2531
353.5,0.2689
354.0,0.2774
354.5,0.2799
355.0,0.2778
355.5,0.2495
356.0,0.2595
356.5,0.2205
357.0,0.1813
357.5,0.2207
358.0,0.174
358.5,0.1479
359.0,0.2059
359.5,0.2615
360.0,0.2756
360.5,0.219
361.0,0.1985
361.5,0.2273
362.0,0.1956
362.5,0.2693
363.0,0.2406
363.5,0.2206
364.0,0.2684
364.5,0.2283
365.0,0.2313
365.5,0.2889
366.0,0.3045
366.5,0.2847
367.0,0.2758
367.5,0.2848
368.0,0.2481
368.5,0.2491
369.0,0.2677
369.5,0.2839
370.0,0.3011
370.5,0.2325
371.0,0.2473
371.5,0.3078
372.0,0.2033
372.5,0.2426
373.0,0.2456
373.5,0.159
374.0,0.2299
374.5,0.1895
375.0,0.1833
375.5,0.2723
376.0,0.2247
376.5,0.2317
377.0,0.2441
377.5,0.2842
378.0,0.3066
378.5,0.2883
379.0,0.2367
379.5,0.2151
380.0,0.2225
380.5,0.2681
381.0,0.2673
381.5,0.2108
382.0,0.1862
382.5,0.1579
383.0,0.1455
383.5,0.1394
384.0,0.1531
384.5,0.2241
385.0,0.2211
385.5,0.205
386.0,0.1747
386.5,0.2283
387.0,0.1888
387.5,0.211
388.0,0.1938
388.5,0.1907
389.0,0.2048
389.5,0.2469
390.0,0.2466
390.5,0.2258
391.0,0.2645
391.5,0.2684
392.0,0.225
392.5,0.2004
393.0,0.111
393.5,0.0803
394.0,0.1626
394.5,0.2058
395.0,0.25
395.5,0.2527
396.0,0.2181
396.5,0.1269
397.0,0.09474
397.5,0.1917
398.0,0.2672
398.5,0.2749
399.0,0.2963
399.5,0.294
400.0,0.3039
401.0,0.2984
402.0,0.3117
403.0,0.2933
404.0,0.2861
405.0,0.2835
406.0,0.2762
407.0,0.2692
408.0,0.2771
409.0,0.294
410.0,0.2547
411.0,0.2734
412.0,0.291
413.0,0.2812
414.0,0.2821
415.0,0.2803
416.0,0.2826
417.0,0.273
418.0,0.2655
419.0,0.2665
420.0,0.2629
421.0,0.2725
422.0,0.2566
423.0,0.2484
424.0,0.2603
425.0,0.2575
426.0,0.2486
427.0,0.2418
428.0,0.2335
429.0,0.2193
430.0,0.1902
431.0,0.1868
432.0,0.2391
433.0,0.2382
434.0,0.2192
435.0,0.227
436.0,0.2537
437.0,0.2482
438.0,0.2243
439.0,0.2301
440.0,0.2355
441.0,0.2419
442.0,0.2571
443.0,0.2484
444.0,0.2516
445.0,0.2441
446.0,0.2309
447.0,0.2474
448.0,0.2491
449.0,0.2479
450.0,0.2527
451.0,0.2598
452.0,0.2481
453.0,0.2315
454.0,0.2397
455.0,0.2392
456.0,0.2428
457.0,0.2448
458.0,0.2346
459.0,0.2315
460.0,0.2303
461.0,0.2337
462.0,0.2337
463.0,0.2303
464.0,0.2248
465.0,0.2201
466.0,0.2204
467.0,0.2145
468.0,0.2152
469.0,0.2144
470.0,0.206
471.0,0.2043
472.0,0.2136
473.0,0.2091
474.0,0.2077
475.0,0.2079
476.0,0.2002
477.0,0.1992
478.0,0.2031
479.0,0.2002
480.0,0.1992
481.0,0.2011
482.0,0.2006
483.0,0.1965
484.0,0.1909
485.0,0.1804
486.0,0.1564
487.0,0.1626
488.0,0.177
489.0,0.1762
490.0,0.184
491.0,0.1795
492.0,0.1682
493.0,0.1724
494.0,0.1728
495.0,0.173
496.0,0.1728
497.0,0.1742
498.0,0.1649
499.0,0.1659
500.0,0.1598
501.0,0.1558
502.0,0.1525
503.0,0.1576
504.0,0.1525
505.0,0.1568
506.0,0.1607
507.0,0.1518
508.0,0.1459
509.0,0.1489
510.0,0.147
511.0,0.1499
512.0,0.1503
513.0,0.1412
514.0,0.1393
515.0,0.137
516.0,0.1357
517.0,0.1197
518.0,0.125
519.0,0.1302
520.0,0.134
521.0,0.1343
522.0,0.1335
523.0,0.1303
524.0,0.1341
525.0,0.1348
526.0,0.128
527.0,0.1198
528.0,0.1259
529.0,0.1318
530.0,0.1292
531.0,0.1303
532.0,0.125
533.0,0.1205
534.0,0.1233
535.0,0.1251
536.0,0.1254
537.0,0.1196
538.0,0.1208
539.0,0.1191
540.0,0.1135
541.0,0.1135
542.0,0.1163
543.0,0.1143
544.0,0.1157
545.0,0.1147
546.0,0.1144
547.0,0.1136
548.0,0.1115
549.0,0.1111
550.0,0.1117
551.0,0.1096
552.0,0.1096
553.0,0.107
554.0,0.1089
555.0,0.1084
556.0,0.1063
557.0,0.1023
558.0,0.1009
559.0,0.09835
560.0,0.09895
561.0,0.09958
562.0,0.09824
563.0,0.1003
564.0,0.09699
565.0,0.09558
566.0,0.09356
567.0,0.09473
568.0,0.09331
569.0,0.09055
570.0,0.08998
571.0,0.08887
572.0,0.09043
573.0,0.09086
574.0,0.09005
575.0,0.08785
576.0,0.08648
577.0,0.08684
578.0,0.08499
579.0,0.08478
580.0,0.08584
581.0,0.08569
582.0,0.08672
583.0,0.08642
584.0,0.08668
585.0,0.08405
586.0,0.08175
587.0,0.08296
588.0,0.0805
589.0,0.07092
590.0,0.07375
591.0,0.07759
592.0,0.07616
593.0,0.07681
594.0,0.07582
595.0,0.07354
596.0,0.07601
597.0,0.07479
598.0,0.07414
599.0,0.07376
600.0,0.07344
601.0,0.07243
602.0,0.07152
603.0,0.07224
604.0,0.07298
605.0,0.07216
606.0,0.07143
607.0,0.07169
608.0,0.07043
609.0,0.07009
610.0,0.06916
611.0,0.0691
612.0,0.06847
613.0,0.06717
614.0,0.06583
615.0,0.06686
616.0,0.06427
617.0,0.06376
618.0,0.06582
619.0,0.06478
620.0,0.06481
621.0,0.0645
622.0,0.06337
623.0,0.06202
624.0,0.06058
625.0,0.06013
626.0,0.06069
627.0,0.06102
628.0,0.05666
629.0,0.05886
630.0,0.05715
631.0,0.05807
632.0,0.05706
633.0,0.05848
634.0,0.0576
635.0,0.05814
636.0,0.05702
637.0,0.05762
638.0,0.05784
639.0,0.05686
640.0,0.05597
641.0,0.0556
642.0,0.05505
643.0,0.05551
644.0,0.05503
645.0,0.05479
646.0,0.05319
647.0,0.05228
648.0,0.05201
649.0,0.05072
650.0,0.05067
651.0,0.05257
652.0,0.05007
653.0,0.0513
654.0,0.05045
655.0,0.04828
656.0,0.04255
657.0,0.04348
658.0,0.04848
659.0,0.04858
660.0,0.0485
661.0,0.04856
662.0,0.04842
663.0,0.04723
664.0,0.04754
665.0,0.0473
666.0,0.04708
667.0,0.04678
668.0,0.04655
669.0,0.04701
670.0,0.04654
671.0,0.04629
672.0,0.04569
673.0,0.04619
674.0,0.04576
675.0,0.04509
676.0,0.04516
677.0,0.0445
678.0,0.04442
679.0,0.04348
680.0,0.0436
681.0,0.0431
682.0,0.04282
683.0,0.04252
684.0,0.04207
685.0,0.0422
686.0,0.04174
687.0,0.02759
688.0,0.03218
689.0,0.03212
690.0,0.0335
691.0,0.03509
692.0,0.0362
693.0,0.03571
694.0,0.03517
695.0,0.03644
696.0,0.03628
697.0,0.03843
698.0,0.03765
699.0,0.03651
700.0,0.03589
701.0,0.03537
702.0,0.03546
703.0,0.03534
704.0,0.03629
705.0,0.03615
706.0,0.03596
707.0,0.03581
708.0,0.03571
709.0,0.03558
710.0,0.03539
711.0,0.03523
712.0,0.035
713.0,0.03448
714.0,0.03441
715.0,0.03314
716.0,0.03301
717.0,0.0284
718.0,0.02578
719.0,0.02331
720.0,0.02444
721.0,0.02696
722.0,0.03097
723.0,0.02852
724.0,0.0254
725.0,0.02491
726.0,0.02608
727.0,0.02622
728.0,0.02452
729.0,0.02534
730.0,0.02681
731.0,0.02545
732.0,0.02716
733.0,0.02868
734.0,0.02922
735.0,0.02847
736.0,0.02832
737.0,0.02829
738.0,0.0286
739.0,0.02788
740.0,0.02848
741.0,0.02806
742.0,0.02795
743.0,0.02851
744.0,0.02827
745.0,0.02814
746.0,0.02814
747.0,0.02807
748.0,0.02786
749.0,0.02739
750.0,0.02725
751.0,0.02685
752.0,0.02684
753.0,0.02683
754.0,0.02674
755.0,0.02647
756.0,0.02634
757.0,0.02625
758.0,0.0258
759.0,0.02515
760.0,0.004113
761.0,0.002139
762.0,0.0126
763.0,0.006213
764.0,0.009333
765.0,0.01241
766.0,0.0152
767.0,0.01913
768.0,0.02201
769.0,0.02238
770.0,0.02305
771.0,0.02314
772.0,0.02308
773.0,0.02312
774.0,0.02289
775.0,0.02262
776.0,0.02279
777.0,0.02239
778.0,0.02214
779.0,0.02204
780.0,0.02182
781.0,0.02174
782.0,0.02177
783.0,0.02129
784.0,0.02129
785.0,0.02103
786.0,0.02116
787.0,0.02069
788.0,0.02034
789.0,0.02022
790.0,0.01957
791.0,0.01966
792.0,0.01942
793.0,0.01901
794.0,0.01926
795.0,0.01949
796.0,0.01878
797.0,0.01873
798.0,0.01921
799.0,0.019
800.0,0.01857
801.0,0.01842
802.0,0.01828
803.0,0.01806
804.0,0.018
805.0,0.01787
806.0,0.01829
807.0,0.01799
808.0,0.01792
809.0,0.01751
810.0,0.01727
811.0,0.01723
812.0,0.01664
813.0,0.0162
814.0,0.01409
815.0,0.01393
816.0,0.01277
817.0,0.01297
818.0,0.01243
819.0,0.01395
820.0,0.01302
821.0,0.01535
822.0,0.0148
823.0,0.009697
824.0,0.01422
825.0,0.01476
826.0,0.01409
827.0,0.01488
828.0,0.0124
829.0,0.01382
830.0,0.01357
831.0,0.01357
832.0,0.01305
833.0,0.01396
834.0,0.01338
835.0,0.0147
836.0,0.01397
837.0,0.01461
838.0,0.01409
839.0,0.01427
840.0,0.01452
841.0,0.01424
842.0,0.01422
843.0,0.01415
844.0,0.01389
845.0,0.0143
846.0,0.01418
847.0,0.01386
848.0,0.01371
849.0,0.01326
850.0,0.01265
851.0,0.01333
852.0,0.01318
853.0,0.01263
854.0,0.01085
855.0,0.01188
856.0,0.01292
857.0,0.01316
858.0,0.01302
859.0,0.01297
860.0,0.01293
861.0,0.0128
862.0,0.01296
863.0,0.01321
864.0,0.0125
865.0,0.01234
866.0,0.01105
867.0,0.01148
868.0,0.01244
869.0,0.01213
870.0,0.01242
871.0,0.0122
872.0,0.01211
873.0,0.01203
874.0,0.01183
875.0,0.01154
876.0,0.01161
877.0,0.01168
878.0,0.01176
879.0,0.01153
880.0,0.01123
881.0,0.01102
882.0,0.01122
883.0,0.01121
884.0,0.01111
885.0,0.01114
886.0,0.01057
887.0,0.01065
888.0,0.01076
889.0,0.01084
890.0,0.01069
891.0,0.01063
892.0,0.01028
893.0,0.009902
894.0,0.009489
895.0,0.008898
896.0,0.00826
897.0,0.006968
898.0,0.007644
899.0,0.005603
900.0,0.007787
901.0,0.005935
902.0,0.007004
903.0,0.007051
904.0,0.009036
905.0,0.008661
906.0,0.00803
907.0,0.006353
908.0,0.006486
909.0,0.007071
910.0,0.006158
911.0,0.006568
912.0,0.006872
913.0,0.006179
914.0,0.006088
915.0,0.006668
916.0,0.005478
917.0,0.007155
918.0,0.005611
919.0,0.007214
920.0,0.007241
921.0,0.007584
922.0,0.006686
923.0,0.007264
924.0,0.006825
925.0,0.006623
926.0,0.0067
927.0,0.007528
928.0,0.005354
929.0,0.004841
930.0,0.003685
931.0,0.003431
932.0,0.002381
933.0,0.001889
934.0,0.0009864
935.0,0.001905
936.0,0.001133
937.0,0.001151
938.0,0.001443
939.0,0.003213
940.0,0.003947
941.0,0.002893
942.0,0.003374
943.0,0.002089
944.0,0.002183
945.0,0.002928
946.0,0.00137
947.0,0.00293
948.0,0.002041
949.0,0.004044
950.0,0.0009713
951.0,0.003936
952.0,0.001954
953.0,0.002586
954.0,0.00324
955.0,0.002617
956.0,0.002481
957.0,0.001933
958.0,0.003621
959.0,0.002805
960.0,0.003203
961.0,0.003609
962.0,0.003378
963.0,0.003946
964.0,0.003557
965.0,0.003895
966.0,0.003897
967.0,0.003858
968.0,0.005306
969.0,0.005578
970.0,0.005043
971.0,0.005839
972.0,0.005523
973.0,0.004736
974.0,0.004452
975.0,0.004599
976.0,0.004344
977.0,0.004989
978.0,0.004701
979.0,0.004935
980.0,0.004575
981.0,0.005584
982.0,0.005297
983.0,0.005047
984.0,0.00571
985.0,0.005221
986.0,0.005777
987.0,0.005637
988.0,0.005602
989.0,0.0057
990.0,0.005531
991.0,0.005671
992.0,0.005682
993.0,0.005528
994.0,0.00564
995.0,0.005613
996.0,0.005564
997.0,0.005551
998.0,0.005504
999.0,0.005465
1000.0,0.005404
1001.0,0.005454
1002.0,0.005274
1003.0,0.005316
1004.0,0.005163
1005.0,0.004957
1006.0,0.005128
1007.0,0.005218
1008.0,0.005168
1009.0,0.00512
1010.0,0.005078
1011.0,0.005115
1012.0,0.005048
1013.0,0.005065
1014.0,0.005012
1015.0,0.004959
1016.0,0.004917
1017.0,0.00491
1018.0,0.004874
1019.0,0.004747
1020.0,0.004809
1021.0,0.004784
1022.0,0.004727
1023.0,0.00476
1024.0,0.004678
1025.0,0.004724
1026.0,0.004685
1027.0,0.004656
1028.0,0.004629
1029.0,0.004558
1030.0,0.004574
1031.0,0.004537
1032.0,0.004507
1033.0,0.004422
1034.0,0.004405
1035.0,0.004401
1036.0,0.004407
1037.0,0.004319
1038.0,0.004323
1039.0,0.004305
1040.0,0.004272
1041.0,0.004272
1042.0,0.004226
1043.0,0.004198
1044.0,0.004198
1045.0,0.004125
1046.0,0.004064
1047.0,0.004085
1048.0,0.004093
1049.0,0.004064
1050.0,0.00403
1051.0,0.004009
1052.0,0.003978
1053.0,0.003932
1054.0,0.003927
1055.0,0.003914
1056.0,0.003885
1057.0,0.003858
1058.0,0.00375
1059.0,0.003741
1060.0,0.003721
1061.0,0.003703
1062.0,0.003708
1063.0,0.003658
1064.0,0.003689
1065.0,0.003648
1066.0,0.003564
1067.0,0.003596
1068.0,0.003503
1069.0,0.003383
1070.0,0.003483
1071.0,0.003528
1072.0,0.003472
1073.0,0.003411
1074.0,0.003491
1075.0,0.003295
1076.0,0.003461
1077.0,0.003381
1078.0,0.003305
1079.0,0.00337
1080.0,0.003287
1081.0,0.003174
1082.0,0.00322
1083.0,0.003219
1084.0,0.003125
1085.0,0.003242
1086.0,0.002919
1087.0,0.003029
1088.0,0.003155
1089.0,0.003039
1090.0,0.002948
1091.0,0.003107
1092.0,0.00309
1093.0,0.002575
1094.0,0.002805
1095.0,0.002679
1096.0,0.002543
1097.0,0.002968
1098.0,0.002486
1099.0,0.002589
1100.0,0.002375
1101.0,0.002404
1102.0,0.002281
1103.0,0.002245
1104.0,0.002242
1105.0,0.002472
1106.0,0.001836
1107.0,0.00232
1108.0,0.001926
1109.0,0.001917
1110.0,0.002274
1111.0,0.001464
1112.0,0.001882
1113.0,0.001132
1114.0,0.00128
1115.0,0.001023
1116.0,0.0008011
1117.0,0.0002642
1118.0,0.0008709
1119.0,0.0003972
1120.0,0.000517
1121.0,0.0007076
1122.0,0.0002671
1123.0,0.0004534
1124.0,0.0003715
1125.0,0.0005038
1126.0,0.0001565
1127.0,0.0005732
1128.0,0.0003251
1129.0,0.0003456
1130.0,0.0002172
1131.0,0.00117
1132.0,0.0008801
1133.0,0.0005302
1134.0,0.0001162
1135.0,3.883e-05
1136.0,0.0004283
1137.0,0.00113
1138.0,0.0007487
1139.0,0.00116
1140.0,0.0009496
1141.0,0.0006979
1142.0,0.0008125
1143.0,0.001213
1144.0,0.0003661
1145.0,0.0004872
1146.0,0.0005302
1147.0,0.0001659
1148.0,0.001004
1149.0,0.0007772
1150.0,0.0003905
1151.0,0.0007098
1152.0,0.0008934
1153.0,0.0008524
1154.0,0.0004597
1155.0,0.001158
1156.0,0.001026
1157.0,0.001163
1158.0,0.001144
1159.0,0.001242
1160.0,0.00104
1161.0,0.00131
1162.0,0.001308
1163.0,0.001823
1164.0,0.001531
1165.0,0.001436
1166.0,0.001412
1167.0,0.001548
1168.0,0.001566
1169.0,0.001606
1170.0,0.001748
1171.0,0.001691
1172.0,0.001715
1173.0,0.001725
1174.0,0.001185
1175.0,0.001671
1176.0,0.001841
1177.0,0.001758
1178.0,0.001273
1179.0,0.001838
1180.0,0.001616
1181.0,0.001672
1182.0,0.0011
1183.0,0.001639
1184.0,0.001513
1185.0,0.00145
1186.0,0.001744
1187.0,0.001649
1188.0,0.001108
1189.0,0.001518
1190.0,0.001677
1191.0,0.001584
1192.0,0.001692
1193.0,0.001609
1194.0,0.00166
1195.0,0.001563
1196.0,0.001496
1197.0,0.001653
1198.0,0.001493
1199.0,0.001253
1200.0,0.00156
1201.0,0.001497
1202.0,0.001479
1203.0,0.001473
1204.0,0.001258
1205.0,0.001504
1206.0,0.001676
1207.0,0.00146
1208.0,0.001436
1209.0,0.00146
1210.0,0.001522
1211.0,0.001439
1212.0,0.001421
1213.0,0.001587
1214.0,0.001448
1215.0,0.001413
1216.0,0.001566
1217.0,0.001517
1218.0,0.001543
1219.0,0.001519
1220.0,0.001535
1221.0,0.001547
1222.0,0.001498
1223.0,0.001479
1224.0,0.001466
1225.0,0.001517
1226.0,0.001523
1227.0,0.001395
1228.0,0.001521
1229.0,0.001509
1230.0,0.001477
1231.0,0.001517
1232.0,0.001503
1233.0,0.001444
1234.0,0.001501
1235.0,0.001486
1236.0,0.001492
1237.0,0.001467
1238.0,0.001478
1239.0,0.001454
1240.0,0.001455
1241.0,0.001443
1242.0,0.001435
1243.0,0.001418
1244.0,0.001424
1245.0,0.001425
1246.0,0.001412
1247.0,0.001402
1248.0,0.001396
1249.0,0.001396
1250.0,0.001383
1251.0,0.001361
1252.0,0.001357
1253.0,0.001342
1254.0,0.001323
1255.0,0.001343
1256.0,0.0013
1257.0,0.001288
1258.0,0.001309
1259.0,0.001256
1260.0,0.001259
1261.0,0.001183
1262.0,0.001143
1263.0,0.001142
1264.0,0.001049
1265.0,0.001129
1266.0,0.001081
1267.0,0.001098
1268.0,0.001036
1269.0,0.0006296
1270.0,0.001085
1271.0,0.001148
1272.0,0.001149
1273.0,0.001133
1274.0,0.001133
1275.0,0.001146
1276.0,0.001154
1277.0,0.001158
1278.0,0.001177
1279.0,0.001163
1280.0,0.001144
1281.0,0.001089
1282.0,0.001047
1283.0,0.001124
1284.0,0.001147
1285.0,0.001151
1286.0,0.001163
1287.0,0.00114
1288.0,0.001137
1289.0,0.001096
1290.0,0.001119
1291.0,0.001131
1292.0,0.001056
1293.0,0.001101
1294.0,0.00109
1295.0,0.001082
1296.0,0.001027
1297.0,0.0009649
1298.0,0.00104
1299.0,0.001082
1300.0,0.0009025
1301.0,0.0009302
1302.0,0.001025
1303.0,0.0008812
1304.0,0.0007422
1305.0,0.0009917
1306.0,0.0009899
1307.0,0.0007485
1308.0,0.0008658
1309.0,0.0009736
1310.0,0.0007261
1311.0,0.0008204
1312.0,0.0007984
1313.0,0.0007783
1314.0,0.0006837
1315.0,0.0006788
1316.0,0.0007974
1317.0,0.0007459
1318.0,0.0008158
1319.0,0.0006228
1320.0,0.000594
1321.0,0.0007054
1322.0,0.0007139
1323.0,0.0005205
1324.0,0.0005994
1325.0,0.0007629
1326.0,0.0006436
1327.0,0.0006085
1328.0,0.0005132
1329.0,0.0003753
1330.0,0.0005052
1331.0,0.0002886
1332.0,0.0002952
1333.0,0.0004312
1334.0,0.000348
1335.0,0.0005001
1336.0,0.000383
1337.0,0.0003342
1338.0,0.0003652
1339.0,0.0003615
1340.0,0.000345
1341.0,0.000341
1342.0,0.00036
1343.0,0.0002394
1344.0,0.0001306
1345.0,0.0001979
1346.0,9.4e-05
1347.0,9.65e-05
1348.0,5.108e-06
1349.0,2.037e-05
1350.0,2.045e-05
1351.0,4.755e-06
1352.0,1.241e-06
1353.0,5.608e-08
1354.0,1.977e-07
1355.0,1.456e-09
1356.0,2.645e-08
1357.0,4.082e-08
1358.0,1.711e-09
1359.0,2.145e-10
1360.0,7.77e-10
1361.0,8.394e-13
1362.0,2.271e-15
1363.0,1.061e-09
1364.0,4.318e-10
1365.0,7.938e-16
1366.0,4.771e-09
1367.0,1.876e-09
1368.0,6.124e-18
1369.0,1.566e-10
1370.0,7.72e-11
1371.0,4.291e-12
1372.0,1.002e-09
1373.0,2.134e-08
1374.0,1.025e-07
1375.0,1.926e-07
1376.0,1.652e-07
1377.0,7.328e-08
1378.0,8.062e-07
1379.0,2.967e-08
1380.0,4.407e-08
1381.0,1.064e-09
1382.0,8.802e-10
1383.0,1.265e-11
1384.0,1.707e-10
1385.0,8.11e-10
1386.0,7.834e-10
1387.0,1.053e-07
1388.0,1.811e-09
1389.0,3.65e-07
1390.0,3.083e-07
1391.0,2.029e-07
1392.0,1.181e-08
1393.0,6.514e-08
1394.0,3.471e-08
1395.0,2.284e-10
1396.0,1.091e-12
1397.0,2.507e-08
1398.0,8.628e-07
1399.0,5.254e-07
1400.0,4.669e-13
1401.0,1.937e-12
1402.0,1.445e-06
1403.0,1.877e-06
1404.0,5.234e-07
1405.0,1.08e-10
1406.0,1.493e-06
1407.0,1.126e-07
1408.0,1.186e-06
1409.0,3.803e-07
1410.0,2.945e-07
1411.0,1.588e-06
1412.0,2.14e-06
1413.0,2.571e-05
1414.0,2.259e-07
1415.0,1.057e-07
1416.0,4.236e-05
1417.0,1.168e-05
1418.0,1.339e-05
1419.0,1.773e-06
1420.0,7.733e-06
1421.0,8.525e-06
1422.0,5.604e-05
1423.0,9.116e-06
1424.0,1.802e-05
1425.0,2.787e-05
1426.0,3.148e-05
1427.0,6.064e-05
1428.0,3.754e-06
1429.0,4.409e-05
1430.0,7.866e-05
1431.0,8.673e-05
1432.0,2.863e-06
1433.0,5.215e-05
1434.0,2.46e-05
1435.0,2.517e-05
1436.0,5.147e-05
1437.0,3.801e-05
1438.0,1.474e-05
1439.0,7.175e-05
1440.0,5.19e-05
1441.0,3.849e-05
1442.0,4.29e-05
1443.0,5.43e-05
1444.0,7.849e-05
1445.0,5.971e-05
1446.0,2.425e-05
1447.0,4.062e-05
1448.0,0.0001566
1449.0,0.0001341
1450.0,2.878e-05
1451.0,1.054e-05
1452.0,7.485e-05
1453.0,0.0001015
1454.0,0.0001866
1455.0,7.909e-05
1456.0,0.0001115
1457.0,0.0001541
1458.0,0.0001836
1459.0,0.0002235
1460.0,0.0001056
1461.0,0.0001112
1462.0,0.0001721
1463.0,4.772e-05
1464.0,0.0002068
1465.0,0.0001148
1466.0,7.615e-05
1467.0,3.718e-05
1468.0,9.134e-05
1469.0,0.0001155
1470.0,5.286e-05
1471.0,1.697e-05
1472.0,5.008e-05
1473.0,7.994e-05
1474.0,0.0001209
1475.0,0.0002497
1476.0,7.851e-05
1477.0,7.937e-05
1478.0,7.181e-05
1479.0,0.0001508
1480.0,6.647e-05
1481.0,0.0001427
1482.0,6.399e-05
1483.0,0.0001921
1484.0,0.0001753
1485.0,0.0001541
1486.0,0.0001515
1487.0,6.341e-05
1488.0,0.0001184
1489.0,0.0002522
1490.0,0.0002282
1491.0,0.0002615
1492.0,0.0002125
1493.0,0.0002362
1494.0,0.0002683
1495.0,0.0002342
1496.0,0.0002174
1497.0,0.000307
1498.0,0.0002448
1499.0,0.0002916
1500.0,0.0003386
1501.0,0.0003586
1502.0,0.0002963
1503.0,0.0002483
1504.0,0.0001942
1505.0,0.0002379
1506.0,0.0003534
1507.0,0.0003381
1508.0,0.0003194
1509.0,0.0002376
1510.0,0.0003636
1511.0,0.0003507
1512.0,0.0003459
1513.0,0.0003158
1514.0,0.0002927
1515.0,0.0003532
1516.0,0.0003362
1517.0,0.000328
1518.0,0.0003257
1519.0,0.0003179
1520.0,0.0003429
1521.0,0.000365
1522.0,0.0003462
1523.0,0.0003685
1524.0,0.0003571
1525.0,0.00034
1526.0,0.0003445
1527.0,0.0003402
1528.0,0.0003623
1529.0,0.0003434
1530.0,0.0003365
1531.0,0.000345
1532.0,0.0003577
1533.0,0.0003567
1534.0,0.0003497
1535.0,0.0003472
1536.0,0.0003528
1537.0,0.0003443
1538.0,0.0003469
1539.0,0.0003403
1540.0,0.0003404
1541.0,0.000342
1542.0,0.0003376
1543.0,0.0003427
1544.0,0.000338
1545.0,0.0003435
1546.0,0.0003375
1547.0,0.0003319
1548.0,0.0003311
1549.0,0.0003333
1550.0,0.0003302
1551.0,0.0003319
1552.0,0.0003286
1553.0,0.0003256
1554.0,0.0003221
1555.0,0.0003221
1556.0,0.0003211
1557.0,0.0003241
1558.0,0.0003215
1559.0,0.0003188
1560.0,0.0003203
1561.0,0.0003218
1562.0,0.0003172
1563.0,0.0003139
1564.0,0.0003146
1565.0,0.0003144
1566.0,0.0003096
1567.0,0.0003095
1568.0,0.0003057
1569.0,0.0003069
1570.0,0.0003091
1571.0,0.000311
1572.0,0.0003084
1573.0,0.0003058
1574.0,0.0002943
1575.0,0.0002902
1576.0,0.0002852
1577.0,0.0002772
1578.0,0.0002906
1579.0,0.0002927
1580.0,0.0002946
1581.0,0.0002896
1582.0,0.0002831
1583.0,0.0002838
1584.0,0.0002881
1585.0,0.0002905
1586.0,0.0002866
1587.0,0.0002813
1588.0,0.0002725
1589.0,0.0002635
1590.0,0.0002689
1591.0,0.0002749
1592.0,0.0002824
1593.0,0.0002861
1594.0,0.000285
1595.0,0.0002806
1596.0,0.0002717
1597.0,0.0002781
1598.0,0.0002812
1599.0,0.0002774
1600.0,0.000275
1601.0,0.0002705
1602.0,0.0002707
1603.0,0.0002726
1604.0,0.0002698
1605.0,0.000269
1606.0,0.0002653
1607.0,0.000267
1608.0,0.0002663
1609.0,0.0002585
1610.0,0.0002525
1611.0,0.0002565
1612.0,0.0002588
1613.0,0.0002587
1614.0,0.000258
1615.0,0.0002517
1616.0,0.0002472
1617.0,0.0002516
1618.0,0.0002553
1619.0,0.00025
1620.0,0.000244
1621.0,0.0002462
1622.0,0.0002495
1623.0,0.0002525
1624.0,0.000249
1625.0,0.0002474
1626.0,0.0002474
1627.0,0.0002487
1628.0,0.0002474
1629.0,0.0002446
1630.0,0.0002426
1631.0,0.0002407
1632.0,0.0002395
1633.0,0.0002319
1634.0,0.0002364
1635.0,0.0002327
1636.0,0.0002301
1637.0,0.000227
1638.0,0.0002134
1639.0,0.000221
1640.0,0.0002114
1641.0,0.0002184
1642.0,0.0002221
1643.0,0.0002097
1644.0,0.0002209
1645.0,0.0002145
1646.0,0.0002091
1647.0,0.0002228
1648.0,0.0002073
1649.0,0.0002165
1650.0,0.0002175
1651.0,0.0002017
1652.0,0.0002144
1653.0,0.0002158
1654.0,0.0002041
1655.0,0.0002147
1656.0,0.0002108
1657.0,0.0002118
1658.0,0.0002138
1659.0,0.0002117
1660.0,0.0002129
1661.0,0.0002113
1662.0,0.0002051
1663.0,0.0002091
1664.0,0.0002067
1665.0,0.000195
1666.0,0.0001595
1667.0,0.0001921
1668.0,0.0001984
1669.0,0.0001992
1670.0,0.0002021
1671.0,0.0001958
1672.0,0.0001929
1673.0,0.0001969
1674.0,0.0001923
1675.0,0.0001888
1676.0,0.0001896
1677.0,0.0001888
1678.0,0.000183
1679.0,0.0001862
1680.0,0.0001782
1681.0,0.0001725
1682.0,0.0001815
1683.0,0.0001849
1684.0,0.0001713
1685.0,0.0001861
1686.0,0.0001851
1687.0,0.0001778
1688.0,0.0001831
1689.0,0.0001806
1690.0,0.0001797
1691.0,0.0001635
1692.0,0.0001781
1693.0,0.0001826
1694.0,0.0001754
1695.0,0.0001798
1696.0,0.0001792
1697.0,0.0001504
1698.0,0.0001768
1699.0,0.0001739
1700.0,0.0001688
1702.0,0.0001711
1705.0,0.0001647
1710.0,0.000154
1715.0,0.0001523
1720.0,0.0001489
1725.0,0.0001374
1730.0,0.0001341
1735.0,0.0001236
1740.0,0.0001241
1745.0,0.0001145
1750.0,0.0001221
1755.0,0.0001103
1760.0,0.0001148
1765.0,9.111e-05
1770.0,9.771e-05
1775.0,7.606e-05
1780.0,6.359e-05
1785.0,4.611e-05
1790.0,5.403e-05
1795.0,2.509e-05
1800.0,1.612e-05
1805.0,6.271e-06
1810.0,3.877e-06
1815.0,1.097e-06
1820.0,2.58e-07
1825.0,3.428e-07
1830.0,7.171e-10
1835.0,1.068e-09
1840.0,6.065e-12
1845.0,7.031e-10
1850.0,3.107e-10
1855.0,2.83e-11
1860.0,1.677e-09
1865.0,2.395e-09
1870.0,1.211e-14
1875.0,2.19e-14
1880.0,1.288e-08
1885.0,6.754e-09
1890.0,3.945e-08
1895.0,2.206e-08
1900.0,8.65e-11
1905.0,5.85e-11
1910.0,2.996e-09
1915.0,2.852e-09
1920.0,8.24e-08
1925.0,1.947e-07
1930.0,1.099e-07
1935.0,9.039e-07
1940.0,8.695e-07
1945.0,3.888e-06
1950.0,7.876e-06
1955.0,7.101e-06
1960.0,1.279e-05
1965.0,1.916e-05
1970.0,2.753e-05
1975.0,3.139e-05
1980.0,3.133e-05
1985.0,3.371e-05
1990.0,3.471e-05
1995.0,3.649e-05
2000.0,3.821e-05
2005.0,3.161e-05
2010.0,4.567e-05
2015.0,3.525e-05
2020.0,3.748e-05
2025.0,4.042e-05
2030.0,3.665e-05
2035.0,3.956e-05
2040.0,3.728e-05
2045.0,3.81e-05
2050.0,3.824e-05
2055.0,3.629e-05
2060.0,3.473e-05
2065.0,3.5e-05
2070.0,3.422e-05
2075.0,3.466e-05
2080.0,3.342e-05
2085.0,3.292e-05
2090.0,3.297e-05
2095.0,3.167e-05
2100.0,2.925e-05
2105.0,3.14e-05
2110.0,2.984e-05
2115.0,3.03e-05
2120.0,2.82e-05
2125.0,2.839e-05
2130.0,2.85e-05
2135.0,2.847e-05
2140.0,2.845e-05
2145.0,2.79e-05
2150.0,2.591e-05
2155.0,2.568e-05
2160.0,2.517e-05
2165.0,2.27e-05
2170.0,2.4e-05
2175.0,2.322e-05
2180.0,2.364e-05
2185.0,2.09e-05
2190.0,2.241e-05
2195.0,2.201e-05
2200.0,1.918e-05
2205.0,2.002e-05
2210.0,2.155e-05
2215.0,2.039e-05
2220.0,2.065e-05
2225.0,1.981e-05
2230.0,1.972e-05
2235.0,1.902e-05
2240.0,1.861e-05
2245.0,1.766e-05
2250.0,1.78e-05
2255.0,1.64e-05
2260.0,1.593e-05
2265.0,1.616e-05
2270.0,1.502e-05
2275.0,1.465e-05
2280.0,1.523e-05
2285.0,1.411e-05
2290.0,1.398e-05
2295.0,1.348e-05
2300.0,1.265e-05
2305.0,1.264e-05
2310.0,1.38e-05
2315.0,1.219e-05
2320.0,1.053e-05
2325.0,1.171e-05
2330.0,1.164e-05
2335.0,1.184e-05
2340.0,8.928e-06
2345.0,1.01e-05
2350.0,7.776e-06
2355.0,9.117e-06
2360.0,9.638e-06
2365.0,9.394e-06
2370.0,5.272e-06
2375.0,8.112e-06
2380.0,7.648e-06
2385.0,5.287e-06
2390.0,6.323e-06
2395.0,6.989e-06
2400.0,7.65e-06
2405.0,5.58e-06
2410.0,5.557e-06
2415.0,4.333e-06
2420.0,4.124e-06
2425.0,5.263e-06
2430.0,7.352e-06
2435.0,2.061e-06
2440.0,6.962e-06
2445.0,2.951e-06
2450.0,1.801e-06
2455.0,3.57e-06
2460.0,4.91e-06
2465.0,3.343e-06
2470.0,2.163e-06
2475.0,2.096e-06
2480.0,9.337e-07
2485.0,6.007e-07
2490.0,3.403e-07
2495.0,2.906e-07
2500.0,7.581e-07
2505.0,1.401e-07
2510.0,2.109e-07
2515.0,4.236e-08
2520.0,2.482e-08
2525.0,2.584e-09
2530.0,1.774e-11
2535.0,3.9e-12
2540.0,9.296e-12
2545.0,6.936e-16
2550.0,2.806e-18
2555.0,1.36e-14
2560.0,4.048e-16
2565.0,9.045e-20
2570.0,2.693e-24
2575.0,1.703e-34
2580.0,1.7760000000000001e-28
2585.0,3.712e-42
2590.0,2.316e-38
2595.0,4.506e-40
2600.0,3.71e-35
2605.0,4.1e-42
2610.0,1.411e-41
2615.0,1.4009999999999999e-45
2620.0,1.244e-35
2625.0,2.278e-35
2630.0,0.0
2635.0,1.186e-21
2640.0,2.568e-22
2645.0,1.119e-24
2650.0,1.115e-25
2655.0,1.34e-34
2660.0,1.129e-31
2665.0,0.0
2670.0,0.0
2675.0,0.0
2680.0,2.2880000000000002e-30
2685.0,2.1860000000000003e-31
2690.0,8.177e-31
2695.0,3.2079999999999996e-33
2700.0,9.347e-29
2705.0,2.6510000000000004e-26
2710.0,2.111e-31
2715.0,2.665e-29
2720.0,0.0
2725.0,5.968e-27
2730.0,1.74e-24
2735.0,1.9840000000000002e-26
2740.0,3.5830000000000003e-32
2745.0,4.62e-27
2750.0,2.589e-26
2755.0,4.167000000000001e-28
2760.0,6.241999999999999e-23
2765.0,2.93e-29
2770.0,1.4400000000000002e-26
2775.0,1.778e-23
2780.0,8.275000000000001e-21
2785.0,3.107e-20
2790.0,7.088e-18
2795.0,1.559e-18
2800.0,4.979e-15
2805.0,9.302e-17
2810.0,3.739e-13
2815.0,1.114e-13
2820.0,1.36e-15
2825.0,1.201e-11
2830.0,2.62e-10
2835.0,3.575e-15
2840.0,7.669e-12
2845.0,2.677e-09
2850.0,4.6e-11
2855.0,1.832e-11
2860.0,9.584e-10
2865.0,7.101e-09
2870.0,1.788e-10
2875.0,1.73e-08
2880.0,1.086e-08
2885.0,1.796e-08
2890.0,7.589e-09
2895.0,1.307e-07
2900.0,3.62e-08
2905.0,4.169e-09
2910.0,1.331e-07
2915.0,5.633e-08
2920.0,1.402e-07
2925.0,4.974e-08
2930.0,3.036e-07
2935.0,3.352e-07
2940.0,7.454e-08
2945.0,6.395e-08
2950.0,2.599e-07
2955.0,1.15e-07
2960.0,2.294e-07
2965.0,3.892e-07
2970.0,1.504e-08
2975.0,3.823e-08
2980.0,5.969e-08
2985.0,3.539e-07
2990.0,5.375e-07
2995.0,2.031e-07
3000.0,3.874e-07
3005.0,1.312e-07
3010.0,3.391e-07
3015.0,2.629e-07
3020.0,2.354e-08
3025.0,3.628e-07
3030.0,2.858e-07
3035.0,1.08e-07
3040.0,8.44e-08
3045.0,1.823e-07
3050.0,4.094e-08
3055.0,9.976e-09
3060.0,2.85e-07
3065.0,1.201e-07
3070.0,6.737e-08
3075.0,2.66e-07
3080.0,1.54e-07
3085.0,6.784e-08
3090.0,9.26e-08
3095.0,2.258e-08
3100.0,1.858e-07
3105.0,3.44e-08
3110.0,2.89e-08
3115.0,8.728e-08
3120.0,4.347e-07
3125.0,1.258e-07
3130.0,2.514e-07
3135.0,5.108e-07
3140.0,1.337e-07
3145.0,1.31e-07
3150.0,2.799e-07
3155.0,2.348e-07
3160.0,3.937e-07
3165.0,6.22e-07
3170.0,5.505e-07
3175.0,3.855e-07
3180.0,4.557e-07
3185.0,3.195e-07
3190.0,1.65e-07
3195.0,9.191e-08
3200.0,1.27e-08
3205.0,8.297e-09
3210.0,3.436e-09
3215.0,1.414e-08
3220.0,5.025e-08
3225.0,5.634e-09
3230.0,9.426e-09
3235.0,2.753e-07
3240.0,1.243e-07
3245.0,2.289e-08
3250.0,8.609e-08
3255.0,3.791e-07
3260.0,3.659e-08
3265.0,7.996e-08
3270.0,3.735e-08
3275.0,2.308e-07
3280.0,9.69e-08
3285.0,4.316e-07
3290.0,3.239e-07
3295.0,3.832e-08
3300.0,5.717e-08
3305.0,1.339e-07
3310.0,1.276e-07
3315.0,1.773e-10
3320.0,1.113e-09
3325.0,1.073e-07
3330.0,1.617e-07
3335.0,3.198e-07
3340.0,1.148e-07
3345.0,1.117e-07
3350.0,2.818e-07
3355.0,1.128e-07
3360.0,1.732e-07
3365.0,2.447e-07
3370.0,1.177e-07
3375.0,2.87e-07
3380.0,1.549e-07
3385.0,2.456e-07
3390.0,3.24e-07
3395.0,3.128e-07
3400.0,4.225e-07
3405.0,1.277e-07
3410.0,2.246e-07
3415.0,2.187e-07
3420.0,4.378e-07
3425.0,3.13e-07
3430.0,2.641e-07
3435.0,3.764e-07
3440.0,2.411e-07
3445.0,3.594e-07
3450.0,3.513e-07
3455.0,2.498e-07
3460.0,3.997e-07
3465.0,2.963e-07
3470.0,3.871e-07
3475.0,3.363e-07
3480.0,3.443e-07
3485.0,3.745e-07
3490.0,3.127e-07
3495.0,3.765e-07
3500.0,3.636e-07
3505.0,3.584e-07
3510.0,3.632e-07
3515.0,3.472e-07
3520.0,3.71e-07
3525.0,3.455e-07
3530.0,3.355e-07
3535.0,2.745e-07
3540.0,2.598e-07
3545.0,2.759e-07
3550.0,3.11e-07
3555.0,2.608e-07
3560.0,3.185e-07
3565.0,3.181e-07
3570.0,2.389e-07
3575.0,2.471e-07
3580.0,2.977e-07
3585.0,2.598e-07
3590.0,2.708e-07
3595.0,2.765e-07
3600.0,2.957e-07
3605.0,2.954e-07
3610.0,2.671e-07
3615.0,2.669e-07
3620.0,3.334e-07
3625.0,2.848e-07
3630.0,2.766e-07
3635.0,2.849e-07
3640.0,3.214e-07
3645.0,2.89e-07
3650.0,2.74e-07
3655.0,2.996e-07
3660.0,2.965e-07
3665.0,2.73e-07
3670.0,2.039e-07
3675.0,1.15e-07
3680.0,2.122e-07
3685.0,2.446e-07
3690.0,2.524e-07
3695.0,2.631e-07
3700.0,2.853e-07
3705.0,2.798e-07
3710.0,2.385e-07
3715.0,2.34e-07
3720.0,2.677e-07
3725.0,2.751e-07
3730.0,2.335e-07
3735.0,2.107e-07
3740.0,2.168e-07
3745.0,2.568e-07
3750.0,2.3e-07
3755.0,2.211e-07
3760.0,2.171e-07
3765.0,2.077e-07
3770.0,2.237e-07
3775.0,2.2e-07
3780.0,2.341e-07
3785.0,2.115e-07
3790.0,1.832e-07
3795.0,2.122e-07
3800.0,2.405e-07
3805.0,2.236e-07
3810.0,1.945e-07
3815.0,1.8e-07
3820.0,2.312e-07
3825.0,2.251e-07
3830.0,2.28e-07
3835.0,1.754e-07
3840.0,2.099e-07
3845.0,2.035e-07
3850.0,2.042e-07
3855.0,1.938e-07
3860.0,1.79e-07
3865.0,1.798e-07
3870.0,1.603e-07
3875.0,1.435e-07
3880.0,1.375e-07
3885.0,1.426e-07
3890.0,1.442e-07
3895.0,1.598e-07
3900.0,1.705e-07
3905.0,1.694e-07
3910.0,1.49e-07
3915.0,1.441e-07
3920.0,1.435e-07
3925.0,1.403e-07
3930.0,1.45e-07
3935.0,1.517e-07
3940.0,1.532e-07
3945.0,1.556e-07
3950.0,1.578e-07
3955.0,1.591e-07
3960.0,1.602e-07
3965.0,1.611e-07
3970.0,1.583e-07
3975.0,1.532e-07
3980.0,1.503e-07
3985.0,1.503e-07
3990.0,1.476e-07
3995.0,1.436e-07
4000.0,1.369e-07
