interpolation:linear
wavelength,value
280.0,2.32e-23
280.5,7.894999999999999e-22
281.0,4.297e-21
281.5,1.413e-19
282.0,4.324e-19
282.5,9.904e-19
283.0,3.044e-18
283.5,4.94e-18
284.0,8.128e-17
284.5,2.395e-16
285.0,1.477e-15
285.5,3.885e-15
286.0,1.426e-14
286.5,5.712e-14
287.0,1.563e-13
287.5,5.8e-13
288.0,1.513e-12
288.5,4.267e-12
289.0,1.096e-11
289.5,3.244e-11
290.0,8.952e-11
290.5,1.826e-10
291.0,3.93e-10
291.5,1.134e-09
292.0,2.298e-09
292.5,3.186e-09
293.0,6.742e-09
293.5,1.616e-08
294.0,2.515e-08
294.5,2.802e-08
295.0,4.709e-08
295.5,8.182e-08
296.0,1.519e-07
296.5,2.04e-07
297.0,2.664e-07
297.5,6.757e-07
298.0,1.011e-06
298.5,9.755e-07
299.0,2.06e-06
299.5,3.158e-06
300.0,3.313e-06
300.5,4.562e-06
301.0,7.586e-06
301.5,1.116e-05
302.0,9.143e-06
302.5,1.653e-05
303.0,2.733e-05
303.5,3.298e-05
304.0,3.078e-05
304.5,4.555e-05
305.0,6.945e-05
305.5,8.054e-05
306.0,7.843e-05
306.5,9.893e-05
307.0,0.0001524
307.5,0.0002123
308.0,0.000226
308.5,0.0002742
309.0,0.0002413
309.5,0.0003423
310.0,0.0003803
310.5,0.0006479
311.0,0.000884
311.5,0.0008848
312.0,0.001064
312.5,0.001466
313.0,0.001697
313.5,0.00155
314.0,0.002253
314.5,0.00245
315.0,0.003339
315.5,0.002526
316.0,0.002607
316.5,0.004333
317.0,0.005363
317.5,0.005348
318.0,0.004612
318.5,0.006961
319.0,0.009124
319.5,0.006329
320.0,0.007461
320.5,0.01142
321.0,0.01223
321.5,0.01194
322.0,0.01043
322.5,0.009156
323.0,0.01037
323.5,0.01727
324.0,0.02076
324.5,0.01948
325.0,0.01332
325.5,0.01904
326.0,0.02919
326.5,0.03215
327.0,0.03091
327.5,0.02852
328.0,0.02222
328.5,0.02738
329.0,0.03694
329.5,0.04344
330.0,0.04254
330.5,0.03102
331.0,0.03058
331.5,0.0333
332.0,0.03966
332.5,0.04096
333.0,0.0398
333.5,0.0335
334.0,0.03388
334.5,0.04241
335.0,0.04173
335.5,0.0502
336.0,0.03472
336.5,0.03853
337.0,0.03052
337.5,0.03746
338.0,0.03909
338.5,0.04688
339.0,0.04659
339.5,0.04466
340.0,0.05054
340.5,0.04583
341.0,0.04617
341.5,0.04273
342.0,0.05116
342.5,0.04796
343.0,0.05243
343.5,0.04917
344.0,0.03512
344.5,0.03643
345.0,0.04866
345.5,0.04986
346.0,0.04248
346.5,0.04816
347.0,0.05144
347.5,0.0415
348.0,0.04756
348.5,0.04767
349.0,0.04427
349.5,0.04378
350.0,0.05415
350.5,0.05708
351.0,0.05082
351.5,0.04902
352.0,0.05285
352.5,0.04137
353.0,0.0522
353.5,0.05588
354.0,0.05804
354.5,0.05883
355.0,0.05853
355.5,0.0529
356.0,0.05536
356.5,0.04725
357.0,0.03901
357.5,0.04775
358.0,0.03784
358.5,0.03233
359.0,0.04516
359.5,0.0574
360.0,0.06085
360.5,0.04866
361.0,0.04437
361.5,0.05109
362.0,0.04417
362.5,0.06111
363.0,0.05486
363.5,0.0505
364.0,0.06172
364.5,0.05272
365.0,0.05365
365.5,0.06731
366.0,0.07128
366.5,0.06695
367.0,0.06517
367.5,0.06759
368.0,0.0591
368.5,0.05959
369.0,0.06432
369.5,0.06852
370.0,0.07301
370.5,0.05663
371.0,0.06048
371.5,0.07562
372.0,0.05015
372.5,0.0601
373.0,0.06109
373.5,0.03972
374.0,0.05768
374.5,0.04773
375.0,0.04637
375.5,0.06918
376.0,0.05731
376.5,0.05935
377.0,0.0628
377.5,0.07342
378.0,0.07953
378.5,0.07511
379.0,0.06194
379.5,0.05653
380.0,0.05873
380.5,0.07108
381.0,0.07117
381.5,0.05638
382.0,0.05003
382.5,0.04262
383.0,0.03942
383.5,0.03794
384.0,0.04182
384.5,0.06147
385.0,0.06091
385.5,0.05668
386.0,0.0485
386.5,0.06366
387.0,0.05285
387.5,0.05932
388.0,0.05472
388.5,0.05404
389.0,0.05828
389.5,0.07053
390.0,0.07072
390.5,0.06503
391.0,0.07648
391.5,0.07794
392.0,0.06558
392.5,0.05866
393.0,0.03261
393.5,0.02368
394.0,0.04815
394.5,0.06116
395.0,0.07456
395.5,0.07567
396.0,0.06554
396.5,0.03828
397.0,0.0287
397.5,0.05832
398.0,0.08159
398.5,0.08425
399.0,0.09115
399.5,0.09076
400.0,0.09414
401.0,0.09279
402.0,0.09767
403.0,0.09258
404.0,0.09095
405.0,0.09073
406.0,0.08905
407.0,0.08737
408.0,0.09052
409.0,0.09662
410.0,0.08422
411.0,0.091
412.0,0.09752
413.0,0.09489
414.0,0.0958
415.0,0.09577
416.0,0.09715
417.0,0.09447
418.0,0.09246
419.0,0.09344
420.0,0.09277
421.0,0.09675
422.0,0.09163
423.0,0.08916
424.0,0.09394
425.0,0.09344
426.0,0.09075
427.0,0.08883
428.0,0.08632
429.0,0.08155
430.0,0.07115
431.0,0.07025
432.0,0.09033
433.0,0.09049
434.0,0.08375
435.0,0.08721
436.0,0.09797
437.0,0.0963
438.0,0.08731
439.0,0.08983
440.0,0.09225
441.0,0.0951
442.0,0.1015
443.0,0.0985
444.0,0.1004
445.0,0.09796
446.0,0.0933
447.0,0.1006
448.0,0.1017
449.0,0.1015
450.0,0.1039
451.0,0.1073
452.0,0.103
453.0,0.09654
454.0,0.1004
455.0,0.1005
456.0,0.1024
457.0,0.1034
458.0,0.09918
459.0,0.09796
460.0,0.09754
461.0,0.0992
462.0,0.09958
463.0,0.09865
464.0,0.09691
465.0,0.09553
466.0,0.09617
467.0,0.09395
468.0,0.09447
469.0,0.09434
470.0,0.09085
471.0,0.09036
472.0,0.09485
473.0,0.09324
474.0,0.09289
475.0,0.09306
476.0,0.08954
477.0,0.08902
478.0,0.09069
479.0,0.0893
480.0,0.08867
481.0,0.08958
482.0,0.08951
483.0,0.08811
484.0,0.08611
485.0,0.08194
486.0,0.07152
487.0,0.07474
488.0,0.08159
489.0,0.08134
490.0,0.08502
491.0,0.08304
492.0,0.07799
493.0,0.08016
494.0,0.08058
495.0,0.08086
496.0,0.08084
497.0,0.08146
498.0,0.07693
499.0,0.07712
500.0,0.07409
501.0,0.07195
502.0,0.07011
503.0,0.07218
504.0,0.06962
505.0,0.07168
506.0,0.07363
507.0,0.06981
508.0,0.06749
509.0,0.06925
510.0,0.06871
511.0,0.07029
512.0,0.07069
513.0,0.06649
514.0,0.06558
515.0,0.06448
516.0,0.0639
517.0,0.05642
518.0,0.05895
519.0,0.06144
520.0,0.06323
521.0,0.06335
522.0,0.06287
523.0,0.0613
524.0,0.06287
525.0,0.06296
526.0,0.05956
527.0,0.05552
528.0,0.05812
529.0,0.0607
530.0,0.0593
531.0,0.05967
532.0,0.05719
533.0,0.05518
534.0,0.05653
535.0,0.05754
536.0,0.05784
537.0,0.05527
538.0,0.05592
539.0,0.05508
540.0,0.05242
541.0,0.05231
542.0,0.05347
543.0,0.05247
544.0,0.05295
545.0,0.05242
546.0,0.05224
547.0,0.05187
548.0,0.05091
549.0,0.05074
550.0,0.051
551.0,0.05003
552.0,0.05004
553.0,0.04879
554.0,0.04958
555.0,0.04928
556.0,0.04824
557.0,0.04633
558.0,0.04552
559.0,0.0442
560.0,0.0443
561.0,0.04441
562.0,0.04362
563.0,0.04437
564.0,0.04277
565.0,0.04203
566.0,0.04107
567.0,0.04148
568.0,0.04072
569.0,0.03935
570.0,0.03904
571.0,0.03852
572.0,0.03908
573.0,0.03922
574.0,0.03886
575.0,0.03792
576.0,0.03742
577.0,0.03769
578.0,0.03702
579.0,0.0371
580.0,0.03776
581.0,0.03789
582.0,0.03852
583.0,0.03852
584.0,0.03874
585.0,0.03765
586.0,0.0367
587.0,0.03728
588.0,0.03606
589.0,0.03156
590.0,0.03281
591.0,0.03462
592.0,0.03385
593.0,0.03415
594.0,0.03357
595.0,0.03235
596.0,0.03351
597.0,0.0328
598.0,0.03246
599.0,0.03223
600.0,0.03206
601.0,0.03162
602.0,0.03124
603.0,0.03161
604.0,0.03202
605.0,0.03176
606.0,0.03157
607.0,0.03185
608.0,0.03146
609.0,0.03149
610.0,0.03125
611.0,0.0314
612.0,0.03129
613.0,0.03086
614.0,0.03042
615.0,0.03105
616.0,0.02998
617.0,0.02987
618.0,0.03097
619.0,0.03059
620.0,0.0307
621.0,0.03063
622.0,0.03018
623.0,0.02963
624.0,0.02902
625.0,0.02886
626.0,0.0292
627.0,0.0294
628.0,0.02685
629.0,0.02835
630.0,0.02759
631.0,0.02832
632.0,0.02794
633.0,0.0288
634.0,0.02852
635.0,0.02892
636.0,0.02851
637.0,0.02894
638.0,0.02921
639.0,0.02885
640.0,0.02853
641.0,0.02847
642.0,0.02831
643.0,0.02864
644.0,0.0285
645.0,0.02845
646.0,0.02764
647.0,0.02708
648.0,0.02706
649.0,0.02642
650.0,0.02666
651.0,0.02776
652.0,0.02635
653.0,0.02725
654.0,0.02688
655.0,0.0257
656.0,0.02277
657.0,0.02334
658.0,0.02615
659.0,0.02628
660.0,0.02633
661.0,0.02647
662.0,0.02642
663.0,0.02583
664.0,0.0261
665.0,0.02608
666.0,0.02604
667.0,0.02597
668.0,0.02594
669.0,0.02627
670.0,0.02608
671.0,0.02602
672.0,0.02574
673.0,0.02608
674.0,0.02591
675.0,0.0256
676.0,0.0257
677.0,0.02538
678.0,0.02539
679.0,0.02491
680.0,0.02502
681.0,0.02477
682.0,0.02465
683.0,0.02451
684.0,0.02429
685.0,0.02441
686.0,0.02417
687.0,0.01462
688.0,0.01741
689.0,0.01743
690.0,0.01841
691.0,0.01959
692.0,0.02052
693.0,0.02029
694.0,0.02013
695.0,0.02113
696.0,0.0211
697.0,0.02262
698.0,0.02219
699.0,0.02137
700.0,0.02103
701.0,0.02065
702.0,0.0208
703.0,0.0208
704.0,0.0215
705.0,0.02143
706.0,0.02137
707.0,0.02132
708.0,0.02127
709.0,0.0213
710.0,0.02116
711.0,0.02109
712.0,0.02099
713.0,0.02064
714.0,0.02064
715.0,0.01981
716.0,0.01972
717.0,0.01643
718.0,0.01498
719.0,0.01361
720.0,0.01417
721.0,0.01587
722.0,0.01849
723.0,0.01695
724.0,0.01498
725.0,0.01465
726.0,0.01531
727.0,0.01557
728.0,0.01443
729.0,0.01508
730.0,0.01586
731.0,0.01507
732.0,0.01628
733.0,0.01735
734.0,0.01776
735.0,0.01728
736.0,0.01716
737.0,0.01716
738.0,0.01753
739.0,0.01711
740.0,0.01753
741.0,0.01731
742.0,0.01728
743.0,0.01763
744.0,0.01752
745.0,0.01745
746.0,0.01745
747.0,0.01741
748.0,0.0173
749.0,0.01703
750.0,0.01696
751.0,0.01674
752.0,0.01676
753.0,0.01678
754.0,0.01676
755.0,0.0166
756.0,0.01654
757.0,0.01649
758.0,0.01622
759.0,0.01569
760.0,0.002375
761.0,0.001266
762.0,0.007051
763.0,0.003535
764.0,0.005245
765.0,0.006954
766.0,0.008619
767.0,0.01118
768.0,0.0134
769.0,0.01379
770.0,0.01441
771.0,0.01457
772.0,0.01456
773.0,0.01459
774.0,0.01444
775.0,0.01426
776.0,0.01436
777.0,0.01409
778.0,0.01393
779.0,0.01387
780.0,0.01373
781.0,0.01369
782.0,0.01373
783.0,0.01345
784.0,0.01348
785.0,0.01332
786.0,0.01342
787.0,0.01305
788.0,0.0128
789.0,0.01275
790.0,0.01226
791.0,0.01242
792.0,0.01229
793.0,0.01204
794.0,0.0123
795.0,0.01242
796.0,0.01184
797.0,0.01179
798.0,0.01223
799.0,0.01208
800.0,0.01178
801.0,0.01165
802.0,0.01156
803.0,0.0114
804.0,0.01138
805.0,0.01134
806.0,0.01168
807.0,0.01146
808.0,0.01142
809.0,0.01108
810.0,0.01091
811.0,0.01082
812.0,0.01033
813.0,0.01005
814.0,0.008595
815.0,0.008518
816.0,0.007828
817.0,0.007938
818.0,0.007577
819.0,0.00859
820.0,0.008014
821.0,0.009626
822.0,0.009263
823.0,0.005918
824.0,0.008834
825.0,0.009336
826.0,0.008843
827.0,0.009411
828.0,0.007678
829.0,0.008717
830.0,0.00856
831.0,0.008551
832.0,0.008204
833.0,0.008829
834.0,0.008419
835.0,0.009419
836.0,0.008818
837.0,0.009359
838.0,0.008966
839.0,0.009125
840.0,0.009304
841.0,0.009096
842.0,0.009124
843.0,0.009136
844.0,0.008939
845.0,0.009233
846.0,0.009161
847.0,0.008961
848.0,0.008837
849.0,0.008542
850.0,0.008142
851.0,0.008545
852.0,0.008453
853.0,0.008114
854.0,0.006959
855.0,0.00764
856.0,0.008309
857.0,0.008481
858.0,0.008382
859.0,0.008368
860.0,0.00836
861.0,0.008283
862.0,0.008391
863.0,0.008563
864.0,0.008108
865.0,0.00801
866.0,0.007176
867.0,0.007462
868.0,0.008089
869.0,0.007892
870.0,0.008087
871.0,0.007945
872.0,0.007887
873.0,0.00784
874.0,0.007714
875.0,0.007524
876.0,0.007568
877.0,0.007614
878.0,0.00766
879.0,0.007511
880.0,0.007319
881.0,0.007167
882.0,0.007286
883.0,0.00729
884.0,0.007219
885.0,0.007239
886.0,0.006837
887.0,0.006906
888.0,0.006963
889.0,0.007041
890.0,0.006913
891.0,0.006894
892.0,0.006625
893.0,0.006346
894.0,0.006
895.0,0.005538
896.0,0.005146
897.0,0.004296
898.0,0.004714
899.0,0.003458
900.0,0.004849
901.0,0.003614
902.0,0.004333
903.0,0.004323
904.0,0.005701
905.0,0.005451
906.0,0.00504
907.0,0.003903
908.0,0.004007
909.0,0.004379
910.0,0.003759
911.0,0.004079
912.0,0.004243
913.0,0.003767
914.0,0.003739
915.0,0.00404
916.0,0.003373
917.0,0.004389
918.0,0.003428
919.0,0.004461
920.0,0.004579
921.0,0.004749
922.0,0.004142
923.0,0.00456
924.0,0.004188
925.0,0.004077
926.0,0.004097
927.0,0.004644
928.0,0.00319
929.0,0.002864
930.0,0.00218
931.0,0.00205
932.0,0.001441
933.0,0.001158
934.0,0.0006222
935.0,0.001179
936.0,0.0007244
937.0,0.0007306
938.0,0.0008972
939.0,0.001917
940.0,0.002331
941.0,0.001714
942.0,0.00199
943.0,0.001278
944.0,0.001358
945.0,0.001742
946.0,0.0008588
947.0,0.001731
948.0,0.00126
949.0,0.002347
950.0,0.0006163
951.0,0.002292
952.0,0.001188
953.0,0.001549
954.0,0.001923
955.0,0.00156
956.0,0.001542
957.0,0.001167
958.0,0.00221
959.0,0.001698
960.0,0.001904
961.0,0.002167
962.0,0.00204
963.0,0.002389
964.0,0.002164
965.0,0.002353
966.0,0.00235
967.0,0.002323
968.0,0.003338
969.0,0.00344
970.0,0.003121
971.0,0.003686
972.0,0.003472
973.0,0.002898
974.0,0.002734
975.0,0.002848
976.0,0.002641
977.0,0.003131
978.0,0.002903
979.0,0.003058
980.0,0.002845
981.0,0.003528
982.0,0.003319
983.0,0.003148
984.0,0.003658
985.0,0.003261
986.0,0.003736
987.0,0.003615
988.0,0.003601
989.0,0.003709
990.0,0.00354
991.0,0.003674
992.0,0.003689
993.0,0.003559
994.0,0.003669
995.0,0.00366
996.0,0.003623
997.0,0.003621
998.0,0.003588
999.0,0.003564
1000.0,0.003515
1001.0,0.003559
1002.0,0.003397
1003.0,0.003467
1004.0,0.003355
1005.0,0.003238
1006.0,0.003344
1007.0,0.003405
1008.0,0.003366
1009.0,0.003326
1010.0,0.003295
1011.0,0.003339
1012.0,0.003289
1013.0,0.003309
1014.0,0.003274
1015.0,0.003239
1016.0,0.00321
1017.0,0.003204
1018.0,0.003186
1019.0,0.003087
1020.0,0.003142
1021.0,0.003129
1022.0,0.003086
1023.0,0.003107
1024.0,0.003037
1025.0,0.003088
1026.0,0.003058
1027.0,0.003041
1028.0,0.003022
1029.0,0.002973
1030.0,0.002989
1031.0,0.002963
1032.0,0.002945
1033.0,0.002889
1034.0,0.002879
1035.0,0.002877
1036.0,0.002879
1037.0,0.002822
1038.0,0.002824
1039.0,0.002811
1040.0,0.002788
1041.0,0.002787
1042.0,0.002757
1043.0,0.002737
1044.0,0.002736
1045.0,0.002687
1046.0,0.002645
1047.0,0.002658
1048.0,0.002662
1049.0,0.002642
1050.0,0.002618
1051.0,0.002603
1052.0,0.002582
1053.0,0.00255
1054.0,0.002544
1055.0,0.002534
1056.0,0.002513
1057.0,0.002493
1058.0,0.002421
1059.0,0.002413
1060.0,0.002399
1061.0,0.002386
1062.0,0.002387
1063.0,0.002353
1064.0,0.002373
1065.0,0.002341
1066.0,0.002291
1067.0,0.002311
1068.0,0.002248
1069.0,0.002174
1070.0,0.002237
1071.0,0.002276
1072.0,0.002232
1073.0,0.002194
1074.0,0.002258
1075.0,0.002109
1076.0,0.002238
1077.0,0.002175
1078.0,0.002117
1079.0,0.002185
1080.0,0.002113
1081.0,0.002027
1082.0,0.002077
1083.0,0.002084
1084.0,0.001991
1085.0,0.002085
1086.0,0.001852
1087.0,0.001937
1088.0,0.00204
1089.0,0.001936
1090.0,0.001873
1091.0,0.002002
1092.0,0.001994
1093.0,0.001611
1094.0,0.001802
1095.0,0.001669
1096.0,0.001575
1097.0,0.001915
1098.0,0.00153
1099.0,0.001598
1100.0,0.001455
1101.0,0.00148
1102.0,0.001392
1103.0,0.001361
1104.0,0.001362
1105.0,0.001519
1106.0,0.001086
1107.0,0.00142
1108.0,0.001153
1109.0,0.001152
1110.0,0.001378
1111.0,0.000872
1112.0,0.001133
1113.0,0.0006759
1114.0,0.0007544
1115.0,0.000618
1116.0,0.0004806
1117.0,0.0001701
1118.0,0.0005212
1119.0,0.0002514
1120.0,0.0003151
1121.0,0.0004193
1122.0,0.0001725
1123.0,0.0002817
1124.0,0.0002368
1125.0,0.0003092
1126.0,0.0001044
1127.0,0.0003467
1128.0,0.0002032
1129.0,0.0002152
1130.0,0.0001402
1131.0,0.0006652
1132.0,0.0005153
1133.0,0.0003185
1134.0,7.897e-05
1135.0,2.959e-05
1136.0,0.0002613
1137.0,0.0006374
1138.0,0.0004438
1139.0,0.0006841
1140.0,0.0005589
1141.0,0.0004175
1142.0,0.0004821
1143.0,0.0006958
1144.0,0.0002326
1145.0,0.0002946
1146.0,0.0003166
1147.0,0.0001084
1148.0,0.0005879
1149.0,0.0004614
1150.0,0.0002463
1151.0,0.0004211
1152.0,0.0005233
1153.0,0.0005133
1154.0,0.0002771
1155.0,0.0006764
1156.0,0.000601
1157.0,0.0006877
1158.0,0.0006778
1159.0,0.0007341
1160.0,0.0006216
1161.0,0.0007875
1162.0,0.0007855
1163.0,0.00112
1164.0,0.0009328
1165.0,0.0008608
1166.0,0.0008646
1167.0,0.0009495
1168.0,0.0009574
1169.0,0.0009822
1170.0,0.001083
1171.0,0.00105
1172.0,0.001079
1173.0,0.00107
1174.0,0.0007206
1175.0,0.001051
1176.0,0.001184
1177.0,0.001111
1178.0,0.0007933
1179.0,0.00118
1180.0,0.001015
1181.0,0.001047
1182.0,0.0006781
1183.0,0.00103
1184.0,0.000945
1185.0,0.0008973
1186.0,0.001106
1187.0,0.001034
1188.0,0.0006721
1189.0,0.0009533
1190.0,0.001069
1191.0,0.0009847
1192.0,0.001081
1193.0,0.00102
1194.0,0.001057
1195.0,0.0009778
1196.0,0.0009286
1197.0,0.001055
1198.0,0.0009534
1199.0,0.0007712
1200.0,0.0009878
1201.0,0.0009338
1202.0,0.000939
1203.0,0.0009202
1204.0,0.0007848
1205.0,0.0009612
1206.0,0.001082
1207.0,0.0009175
1208.0,0.000912
1209.0,0.0009271
1210.0,0.0009739
1211.0,0.0009118
1212.0,0.0008765
1213.0,0.001011
1214.0,0.0008992
1215.0,0.0008779
1216.0,0.001002
1217.0,0.000965
1218.0,0.000987
1219.0,0.0009661
1220.0,0.0009822
1221.0,0.0009973
1222.0,0.0009619
1223.0,0.0009465
1224.0,0.0009285
1225.0,0.0009747
1226.0,0.0009856
1227.0,0.0008823
1228.0,0.000987
1229.0,0.0009763
1230.0,0.0009525
1231.0,0.000989
1232.0,0.0009794
1233.0,0.0009257
1234.0,0.0009836
1235.0,0.0009707
1236.0,0.0009774
1237.0,0.0009542
1238.0,0.0009679
1239.0,0.0009523
1240.0,0.000954
1241.0,0.0009409
1242.0,0.0009406
1243.0,0.0009302
1244.0,0.0009319
1245.0,0.000934
1246.0,0.0009259
1247.0,0.0009177
1248.0,0.0009113
1249.0,0.0009138
1250.0,0.0009036
1251.0,0.0008856
1252.0,0.0008875
1253.0,0.0008696
1254.0,0.0008526
1255.0,0.0008761
1256.0,0.0008348
1257.0,0.0008248
1258.0,0.0008485
1259.0,0.0007949
1260.0,0.000799
1261.0,0.0007302
1262.0,0.0006963
1263.0,0.0006951
1264.0,0.000621
1265.0,0.0006868
1266.0,0.0006472
1267.0,0.0006645
1268.0,0.0006161
1269.0,0.0003494
1270.0,0.000653
1271.0,0.0007095
1272.0,0.0007109
1273.0,0.0006989
1274.0,0.0007022
1275.0,0.0007137
1276.0,0.0007227
1277.0,0.0007313
1278.0,0.0007515
1279.0,0.0007434
1280.0,0.0007312
1281.0,0.0007
1282.0,0.0006797
1283.0,0.0007282
1284.0,0.0007422
1285.0,0.0007462
1286.0,0.0007577
1287.0,0.0007365
1288.0,0.0007368
1289.0,0.0006978
1290.0,0.000726
1291.0,0.0007365
1292.0,0.0006676
1293.0,0.0007126
1294.0,0.0007044
1295.0,0.0006906
1296.0,0.0006457
1297.0,0.0006003
1298.0,0.0006621
1299.0,0.0007017
1300.0,0.0005617
1301.0,0.0005807
1302.0,0.0006541
1303.0,0.0005504
1304.0,0.000448
1305.0,0.0006316
1306.0,0.0006259
1307.0,0.0004586
1308.0,0.0005452
1309.0,0.0006107
1310.0,0.0004431
1311.0,0.0005126
1312.0,0.0004968
1313.0,0.0004776
1314.0,0.0004168
1315.0,0.0004087
1316.0,0.0004936
1317.0,0.0004612
1318.0,0.00051
1319.0,0.0003747
1320.0,0.000363
1321.0,0.0004316
1322.0,0.000431
1323.0,0.0003086
1324.0,0.0003627
1325.0,0.0004684
1326.0,0.0003903
1327.0,0.0003677
1328.0,0.0003097
1329.0,0.0002236
1330.0,0.0002961
1331.0,0.0001717
1332.0,0.0001773
1333.0,0.0002481
1334.0,0.000213
1335.0,0.0002947
1336.0,0.0002276
1337.0,0.0002003
1338.0,0.000216
1339.0,0.0002146
1340.0,0.0002094
1341.0,0.0002004
1342.0,0.0002106
1343.0,0.0001392
1344.0,8.305e-05
1345.0,0.0001193
1346.0,5.855e-05
1347.0,5.93e-05
1348.0,3.821e-06
1349.0,1.371e-05
1350.0,1.421e-05
1351.0,3.435e-06
1352.0,9.24e-07
1353.0,4.702e-08
1354.0,1.616e-07
1355.0,1.301e-09
1356.0,2.278e-08
1357.0,3.46e-08
1358.0,1.528e-09
1359.0,1.925e-10
1360.0,6.956e-10
1361.0,7.781e-13
1362.0,2.129e-15
1363.0,9.354e-10
1364.0,3.862e-10
1365.0,7.432e-16
1366.0,4.054e-09
1367.0,1.655e-09
1368.0,5.739e-18
1369.0,1.423e-10
1370.0,7.008e-11
1371.0,3.973e-12
1372.0,8.975e-10
1373.0,1.808e-08
1374.0,8.386e-08
1375.0,1.521e-07
1376.0,1.364e-07
1377.0,6.231e-08
1378.0,6.092e-07
1379.0,2.603e-08
1380.0,3.741e-08
1381.0,9.746e-10
1382.0,7.866e-10
1383.0,1.176e-11
1384.0,1.542e-10
1385.0,7.374e-10
1386.0,6.936e-10
1387.0,8.388e-08
1388.0,1.65e-09
1389.0,2.832e-07
1390.0,2.431e-07
1391.0,1.617e-07
1392.0,1.048e-08
1393.0,5.552e-08
1394.0,2.861e-08
1395.0,2.097e-10
1396.0,1.013e-12
1397.0,2.186e-08
1398.0,6.463e-07
1399.0,4.088e-07
1400.0,4.333e-13
1401.0,1.798e-12
1402.0,1.132e-06
1403.0,1.419e-06
1404.0,4.309e-07
1405.0,9.929e-11
1406.0,1.114e-06
1407.0,9.817e-08
1408.0,9.063e-07
1409.0,3.021e-07
1410.0,2.419e-07
1411.0,1.22e-06
1412.0,1.646e-06
1413.0,1.713e-05
1414.0,1.888e-07
1415.0,9.018e-08
1416.0,2.831e-05
1417.0,8.359e-06
1418.0,9.465e-06
1419.0,1.457e-06
1420.0,5.752e-06
1421.0,6.205e-06
1422.0,3.639e-05
1423.0,6.979e-06
1424.0,1.31e-05
1425.0,1.914e-05
1426.0,2.191e-05
1427.0,4.077e-05
1428.0,2.85e-06
1429.0,3.001e-05
1430.0,5.186e-05
1431.0,5.705e-05
1432.0,2.215e-06
1433.0,3.574e-05
1434.0,1.797e-05
1435.0,1.74e-05
1436.0,3.43e-05
1437.0,2.622e-05
1438.0,1.082e-05
1439.0,4.662e-05
1440.0,3.482e-05
1441.0,2.601e-05
1442.0,2.882e-05
1443.0,3.677e-05
1444.0,5.127e-05
1445.0,3.933e-05
1446.0,1.744e-05
1447.0,2.749e-05
1448.0,9.812e-05
1449.0,8.42e-05
1450.0,2.027e-05
1451.0,7.974e-06
1452.0,4.933e-05
1453.0,6.507e-05
1454.0,0.0001159
1455.0,5.275e-05
1456.0,7.034e-05
1457.0,9.634e-05
1458.0,0.0001163
1459.0,0.0001374
1460.0,6.94e-05
1461.0,7.108e-05
1462.0,0.0001066
1463.0,3.299e-05
1464.0,0.0001283
1465.0,7.612e-05
1466.0,4.98e-05
1467.0,2.545e-05
1468.0,5.902e-05
1469.0,7.35e-05
1470.0,3.506e-05
1471.0,1.244e-05
1472.0,3.332e-05
1473.0,5.192e-05
1474.0,7.768e-05
1475.0,0.0001524
1476.0,5.175e-05
1477.0,5.161e-05
1478.0,4.84e-05
1479.0,9.518e-05
1480.0,4.418e-05
1481.0,8.971e-05
1482.0,4.333e-05
1483.0,0.000118
1484.0,0.0001111
1485.0,9.759e-05
1486.0,9.455e-05
1487.0,4.166e-05
1488.0,7.543e-05
1489.0,0.0001554
1490.0,0.0001441
1491.0,0.0001653
1492.0,0.0001304
1493.0,0.0001467
1494.0,0.0001699
1495.0,0.000148
1496.0,0.0001368
1497.0,0.0001999
1498.0,0.0001567
1499.0,0.000186
1500.0,0.0002222
1501.0,0.0002323
1502.0,0.0001933
1503.0,0.000158
1504.0,0.0001226
1505.0,0.000152
1506.0,0.0002323
1507.0,0.0002214
1508.0,0.0002097
1509.0,0.0001519
1510.0,0.0002411
1511.0,0.0002291
1512.0,0.0002299
1513.0,0.0002037
1514.0,0.0001872
1515.0,0.0002355
1516.0,0.0002231
1517.0,0.0002138
1518.0,0.0002144
1519.0,0.0002063
1520.0,0.0002254
1521.0,0.0002482
1522.0,0.0002303
1523.0,0.0002512
1524.0,0.0002407
1525.0,0.0002244
1526.0,0.0002274
1527.0,0.0002266
1528.0,0.000246
1529.0,0.0002319
1530.0,0.0002241
1531.0,0.0002316
1532.0,0.0002443
1533.0,0.0002445
1534.0,0.000239
1535.0,0.0002359
1536.0,0.000241
1537.0,0.0002341
1538.0,0.0002379
1539.0,0.0002323
1540.0,0.0002337
1541.0,0.0002344
1542.0,0.0002303
1543.0,0.000235
1544.0,0.0002306
1545.0,0.000236
1546.0,0.0002307
1547.0,0.0002277
1548.0,0.0002271
1549.0,0.0002291
1550.0,0.0002267
1551.0,0.0002275
1552.0,0.0002244
1553.0,0.0002236
1554.0,0.0002208
1555.0,0.0002212
1556.0,0.0002203
1557.0,0.0002225
1558.0,0.0002208
1559.0,0.0002187
1560.0,0.0002197
1561.0,0.0002207
1562.0,0.0002169
1563.0,0.0002149
1564.0,0.0002152
1565.0,0.0002155
1566.0,0.0002119
1567.0,0.000212
1568.0,0.0002091
1569.0,0.0002103
1570.0,0.0002115
1571.0,0.0002126
1572.0,0.0002107
1573.0,0.0002086
1574.0,0.0002005
1575.0,0.0001974
1576.0,0.0001933
1577.0,0.0001877
1578.0,0.0001963
1579.0,0.0001969
1580.0,0.0001984
1581.0,0.0001951
1582.0,0.0001909
1583.0,0.0001911
1584.0,0.0001952
1585.0,0.0001971
1586.0,0.0001941
1587.0,0.0001905
1588.0,0.0001856
1589.0,0.0001795
1590.0,0.0001827
1591.0,0.000187
1592.0,0.0001915
1593.0,0.0001946
1594.0,0.0001934
1595.0,0.0001907
1596.0,0.0001845
1597.0,0.0001882
1598.0,0.0001911
1599.0,0.0001885
1600.0,0.0001871
1601.0,0.0001837
1602.0,0.0001835
1603.0,0.0001855
1604.0,0.0001835
1605.0,0.0001831
1606.0,0.0001805
1607.0,0.0001817
1608.0,0.0001806
1609.0,0.0001757
1610.0,0.0001717
1611.0,0.0001742
1612.0,0.000176
1613.0,0.0001755
1614.0,0.0001753
1615.0,0.000171
1616.0,0.0001679
1617.0,0.0001705
1618.0,0.0001734
1619.0,0.0001692
1620.0,0.0001658
1621.0,0.0001671
1622.0,0.0001693
1623.0,0.0001715
1624.0,0.0001687
1625.0,0.0001677
1626.0,0.0001676
1627.0,0.0001686
1628.0,0.0001674
1629.0,0.0001658
1630.0,0.0001643
1631.0,0.0001624
1632.0,0.0001619
1633.0,0.0001554
1634.0,0.0001601
1635.0,0.0001558
1636.0,0.0001552
1637.0,0.0001536
1638.0,0.0001416
1639.0,0.0001495
1640.0,0.0001395
1641.0,0.0001473
1642.0,0.0001505
1643.0,0.0001374
1644.0,0.00015
1645.0,0.0001427
1646.0,0.0001368
1647.0,0.0001512
1648.0,0.0001359
1649.0,0.0001458
1650.0,0.0001469
1651.0,0.0001311
1652.0,0.0001441
1653.0,0.0001457
1654.0,0.000134
1655.0,0.0001449
1656.0,0.0001407
1657.0,0.000142
1658.0,0.0001448
1659.0,0.000143
1660.0,0.000144
1661.0,0.0001426
1662.0,0.000137
1663.0,0.0001418
1664.0,0.0001398
1665.0,0.0001284
1666.0,9.789e-05
1667.0,0.0001265
1668.0,0.000134
1669.0,0.0001344
1670.0,0.0001373
1671.0,0.0001323
1672.0,0.000131
1673.0,0.000134
1674.0,0.0001294
1675.0,0.0001274
1676.0,0.0001286
1677.0,0.0001275
1678.0,0.0001223
1679.0,0.000127
1680.0,0.0001212
1681.0,0.0001157
1682.0,0.0001237
1683.0,0.0001261
1684.0,0.0001125
1685.0,0.0001269
1686.0,0.0001262
1687.0,0.000119
1688.0,0.0001245
1689.0,0.0001229
1690.0,0.0001217
1691.0,0.0001073
1692.0,0.0001202
1693.0,0.0001247
1694.0,0.0001177
1695.0,0.0001223
1696.0,0.0001223
1697.0,9.715e-05
1698.0,0.0001201
1699.0,0.0001183
1700.0,0.0001138
1702.0,0.0001163
1705.0,0.0001106
1710.0,0.000103
1715.0,0.0001023
1720.0,0.0001005
1725.0,9.102e-05
1730.0,8.928e-05
1735.0,8.232e-05
1740.0,8.221e-05
1745.0,7.593e-05
1750.0,8.052e-05
1755.0,7.237e-05
1760.0,7.519e-05
1765.0,5.895e-05
1770.0,6.246e-05
1775.0,4.809e-05
1780.0,4.002e-05
1785.0,2.903e-05
1790.0,3.354e-05
1795.0,1.571e-05
1800.0,1.083e-05
1805.0,4.275e-06
1810.0,2.776e-06
1815.0,8.029e-07
1820.0,2.008e-07
1825.0,2.621e-07
1830.0,6.388e-10
1835.0,9.673e-10
1840.0,5.645e-12
1845.0,6.035e-10
1850.0,2.724e-10
1855.0,2.604e-11
1860.0,1.492e-09
1865.0,2.079e-09
1870.0,1.138e-14
1875.0,2.056e-14
1880.0,1.095e-08
1885.0,5.835e-09
1890.0,3.2e-08
1895.0,1.857e-08
1900.0,7.937e-11
1905.0,5.406e-11
1910.0,2.618e-09
1915.0,2.551e-09
1920.0,6.689e-08
1925.0,1.572e-07
1930.0,9.076e-08
1935.0,6.918e-07
1940.0,6.87e-07
1945.0,2.83e-06
1950.0,5.517e-06
1955.0,4.91e-06
1960.0,8.684e-06
1965.0,1.282e-05
1970.0,1.833e-05
1975.0,2.079e-05
1980.0,2.087e-05
1985.0,2.255e-05
1990.0,2.319e-05
1995.0,2.454e-05
2000.0,2.597e-05
2005.0,2.111e-05
2010.0,3.196e-05
2015.0,2.379e-05
2020.0,2.561e-05
2025.0,2.828e-05
2030.0,2.528e-05
2035.0,2.81e-05
2040.0,2.617e-05
2045.0,2.687e-05
2050.0,2.735e-05
2055.0,2.568e-05
2060.0,2.448e-05
2065.0,2.483e-05
2070.0,2.423e-05
2075.0,2.489e-05
2080.0,2.401e-05
2085.0,2.364e-05
2090.0,2.377e-05
2095.0,2.277e-05
2100.0,2.075e-05
2105.0,2.256e-05
2110.0,2.123e-05
2115.0,2.177e-05
2120.0,2.001e-05
2125.0,2.025e-05
2130.0,2.046e-05
2135.0,2.046e-05
2140.0,2.049e-05
2145.0,2.008e-05
2150.0,1.831e-05
2155.0,1.817e-05
2160.0,1.788e-05
2165.0,1.608e-05
2170.0,1.712e-05
2175.0,1.637e-05
2180.0,1.683e-05
2185.0,1.466e-05
2190.0,1.59e-05
2195.0,1.557e-05
2200.0,1.312e-05
2205.0,1.402e-05
2210.0,1.545e-05
2215.0,1.445e-05
2220.0,1.471e-05
2225.0,1.407e-05
2230.0,1.402e-05
2235.0,1.348e-05
2240.0,1.32e-05
2245.0,1.241e-05
2250.0,1.271e-05
2255.0,1.151e-05
2260.0,1.119e-05
2265.0,1.151e-05
2270.0,1.054e-05
2275.0,1.026e-05
2280.0,1.087e-05
2285.0,9.895e-06
2290.0,9.829e-06
2295.0,9.463e-06
2300.0,8.771e-06
2305.0,8.796e-06
2310.0,9.902e-06
2315.0,8.508e-06
2320.0,7.236e-06
2325.0,8.304e-06
2330.0,8.15e-06
2335.0,8.348e-06
2340.0,6.13e-06
2345.0,6.954e-06
2350.0,5.353e-06
2355.0,6.253e-06
2360.0,6.665e-06
2365.0,6.593e-06
2370.0,3.588e-06
2375.0,5.57e-06
2380.0,5.303e-06
2385.0,3.651e-06
2390.0,4.373e-06
2395.0,4.817e-06
2400.0,5.285e-06
2405.0,3.901e-06
2410.0,3.878e-06
2415.0,3.013e-06
2420.0,2.903e-06
2425.0,3.662e-06
2430.0,5.078e-06
2435.0,1.51e-06
2440.0,4.888e-06
2445.0,2.128e-06
2450.0,1.329e-06
2455.0,2.564e-06
2460.0,3.452e-06
2465.0,2.387e-06
2470.0,1.567e-06
2475.0,1.518e-06
2480.0,7.086e-07
2485.0,4.61e-07
2490.0,2.651e-07
2495.0,2.293e-07
2500.0,5.691e-07
2505.0,1.157e-07
2510.0,1.701e-07
2515.0,3.602e-08
2520.0,2.025e-08
2525.0,2.31e-09
2530.0,1.608e-11
2535.0,3.556e-12
2540.0,8.436e-12
2545.0,6.542e-16
2550.0,2.653e-18
2555.0,1.273e-14
2560.0,3.821e-16
2565.0,8.554000000000001e-20
2570.0,2.547e-24
2575.0,1.611e-34
2580.0,1.6800000000000001e-28
2585.0,3.512e-42
2590.0,2.191e-38
2595.0,4.263e-40
2600.0,3.509e-35
2605.0,3.879e-42
2610.0,1.3349999999999998e-41
2615.0,1.4009999999999999e-45
2620.0,1.176e-35
2625.0,2.154e-35
2630.0,0.0
2635.0,1.1220000000000001e-21
2640.0,2.428e-22
2645.0,1.059e-24
2650.0,1.054e-25
2655.0,1.268e-34
2660.0,1.0680000000000001e-31
2665.0,9.808999999999999e-45
2670.0,0.0
2675.0,5.185e-44
2680.0,2.1640000000000002e-30
2685.0,2.068e-31
2690.0,7.737000000000001e-31
2695.0,3.0349999999999998e-33
2700.0,8.840999999999999e-29
2705.0,2.507e-26
2710.0,1.9960000000000002e-31
2715.0,2.521e-29
2720.0,0.0
2725.0,5.645e-27
2730.0,1.646e-24
2735.0,1.8770000000000002e-26
2740.0,3.39e-32
2745.0,4.3709999999999996e-27
2750.0,2.4500000000000002e-26
2755.0,3.942e-28
2760.0,5.905e-23
2765.0,2.7709999999999997e-29
2770.0,1.3620000000000002e-26
2775.0,1.6809999999999998e-23
2780.0,7.828e-21
2785.0,2.939e-20
2790.0,6.702e-18
2795.0,1.474e-18
2800.0,4.706e-15
2805.0,8.8e-17
2810.0,3.529e-13
2815.0,1.052e-13
2820.0,1.286e-15
2825.0,1.129e-11
2830.0,2.453e-10
2835.0,3.379e-15
2840.0,7.23e-12
2845.0,2.502e-09
2850.0,4.331e-11
2855.0,1.73e-11
2860.0,8.993e-10
2865.0,6.631e-09
2870.0,1.682e-10
2875.0,1.614e-08
2880.0,1.017e-08
2885.0,1.675e-08
2890.0,7.122e-09
2895.0,1.214e-07
2900.0,3.384e-08
2905.0,3.917e-09
2910.0,1.238e-07
2915.0,5.255e-08
2920.0,1.304e-07
2925.0,4.649e-08
2930.0,2.814e-07
2935.0,3.103e-07
2940.0,6.946e-08
2945.0,5.965e-08
2950.0,2.407e-07
2955.0,1.072e-07
2960.0,2.127e-07
2965.0,3.601e-07
2970.0,1.411e-08
2975.0,3.574e-08
2980.0,5.561e-08
2985.0,3.272e-07
2990.0,4.959e-07
2995.0,1.882e-07
3000.0,3.578e-07
3005.0,1.218e-07
3010.0,3.132e-07
3015.0,2.428e-07
3020.0,2.194e-08
3025.0,3.346e-07
3030.0,2.636e-07
3035.0,1.002e-07
3040.0,7.83e-08
3045.0,1.682e-07
3050.0,3.812e-08
3055.0,9.326e-09
3060.0,2.618e-07
3065.0,1.108e-07
3070.0,6.227e-08
3075.0,2.44e-07
3080.0,1.417e-07
3085.0,6.259e-08
3090.0,8.511e-08
3095.0,2.094e-08
3100.0,1.701e-07
3105.0,3.188e-08
3110.0,2.668e-08
3115.0,8.006e-08
3120.0,3.926e-07
3125.0,1.153e-07
3130.0,2.289e-07
3135.0,4.591e-07
3140.0,1.219e-07
3145.0,1.196e-07
3150.0,2.524e-07
3155.0,2.125e-07
3160.0,3.526e-07
3165.0,5.55e-07
3170.0,4.914e-07
3175.0,3.443e-07
3180.0,4.069e-07
3185.0,2.84e-07
3190.0,1.488e-07
3195.0,8.258e-08
3200.0,1.166e-08
3205.0,7.614e-09
3210.0,3.172e-09
3215.0,1.29e-08
3220.0,4.527e-08
3225.0,5.206e-09
3230.0,8.647e-09
3235.0,2.425e-07
3240.0,1.102e-07
3245.0,2.092e-08
3250.0,7.715e-08
3255.0,3.31e-07
3260.0,3.3e-08
3265.0,7.145e-08
3270.0,3.364e-08
3275.0,2.031e-07
3280.0,8.624e-08
3285.0,3.749e-07
3290.0,2.813e-07
3295.0,3.458e-08
3300.0,5.138e-08
3305.0,1.18e-07
3310.0,1.12e-07
3315.0,1.623e-10
3320.0,1.023e-09
3325.0,9.408e-08
3330.0,1.431e-07
3335.0,2.771e-07
3340.0,1.02e-07
3345.0,9.897e-08
3350.0,2.473e-07
3355.0,1.001e-07
3360.0,1.538e-07
3365.0,2.172e-07
3370.0,1.049e-07
3375.0,2.553e-07
3380.0,1.381e-07
3385.0,2.194e-07
3390.0,2.883e-07
3395.0,2.797e-07
3400.0,3.792e-07
3405.0,1.151e-07
3410.0,2.027e-07
3415.0,1.966e-07
3420.0,3.953e-07
3425.0,2.812e-07
3430.0,2.369e-07
3435.0,3.39e-07
3440.0,2.156e-07
3445.0,3.225e-07
3450.0,3.143e-07
3455.0,2.235e-07
3460.0,3.588e-07
3465.0,2.637e-07
3470.0,3.465e-07
3475.0,2.993e-07
3480.0,3.065e-07
3485.0,3.341e-07
3490.0,2.774e-07
3495.0,3.355e-07
3500.0,3.237e-07
3505.0,3.191e-07
3510.0,3.228e-07
3515.0,3.061e-07
3520.0,3.258e-07
3525.0,3.02e-07
3530.0,2.914e-07
3535.0,2.367e-07
3540.0,2.234e-07
3545.0,2.364e-07
3550.0,2.676e-07
3555.0,2.233e-07
3560.0,2.734e-07
3565.0,2.721e-07
3570.0,2.037e-07
3575.0,2.096e-07
3580.0,2.538e-07
3585.0,2.202e-07
3590.0,2.303e-07
3595.0,2.359e-07
3600.0,2.523e-07
3605.0,2.505e-07
3610.0,2.262e-07
3615.0,2.271e-07
3620.0,2.851e-07
3625.0,2.41e-07
3630.0,2.346e-07
3635.0,2.416e-07
3640.0,2.743e-07
3645.0,2.443e-07
3650.0,2.318e-07
3655.0,2.545e-07
3660.0,2.52e-07
3665.0,2.299e-07
3670.0,1.716e-07
3675.0,9.652e-08
3680.0,1.773e-07
3685.0,2.048e-07
3690.0,2.111e-07
3695.0,2.217e-07
3700.0,2.419e-07
3705.0,2.367e-07
3710.0,1.996e-07
3715.0,1.962e-07
3720.0,2.256e-07
3725.0,2.318e-07
3730.0,1.953e-07
3735.0,1.755e-07
3740.0,1.809e-07
3745.0,2.157e-07
3750.0,1.922e-07
3755.0,1.845e-07
3760.0,1.8e-07
3765.0,1.724e-07
3770.0,1.863e-07
3775.0,1.831e-07
3780.0,1.952e-07
3785.0,1.748e-07
3790.0,1.509e-07
3795.0,1.76e-07
3800.0,2.004e-07
3805.0,1.854e-07
3810.0,1.595e-07
3815.0,1.479e-07
3820.0,1.919e-07
3825.0,1.864e-07
3830.0,1.891e-07
3835.0,1.428e-07
3840.0,1.725e-07
3845.0,1.664e-07
3850.0,1.67e-07
3855.0,1.579e-07
3860.0,1.445e-07
3865.0,1.451e-07
3870.0,1.284e-07
3875.0,1.144e-07
3880.0,1.094e-07
3885.0,1.135e-07
3890.0,1.149e-07
3895.0,1.278e-07
3900.0,1.373e-07
3905.0,1.363e-07
3910.0,1.187e-07
3915.0,1.148e-07
3920.0,1.142e-07
3925.0,1.115e-07
3930.0,1.155e-07
3935.0,1.21e-07
3940.0,1.224e-07
3945.0,1.246e-07
3950.0,1.266e-07
3955.0,1.278e-07
3960.0,1.288e-07
3965.0,1.296e-07
3970.0,1.273e-07
3975.0,1.228e-07
3980.0,1.202e-07
3985.0,1.203e-07
3990.0,1.18e-07
3995.0,1.144e-07
4000.0,1.088e-07
