interpolation:linear
wavelength,value
280.0,2.1070000000000002e-21
280.5,6.665000000000001e-20
281.0,3.527e-19
281.5,4.053e-19
282.0,1.025e-18
282.5,2.646e-18
283.0,8.482e-18
283.5,1.385e-17
284.0,2.25e-16
284.5,6.498e-16
285.0,1.423e-15
285.5,6.842e-15
286.0,2.73e-14
286.5,1.202e-13
287.0,3.402e-13
287.5,1.288e-12
288.0,3.579e-12
288.5,1.165e-11
289.0,3.256e-11
289.5,1.018e-10
290.0,2.886e-10
290.5,5.965e-10
291.0,1.296e-09
291.5,3.76e-09
292.0,7.758e-09
292.5,1.151e-08
293.0,2.645e-08
293.5,7.04e-08
294.0,1.169e-07
294.5,1.49e-07
295.0,2.649e-07
295.5,6.361e-07
296.0,1.25e-06
296.5,1.786e-06
297.0,2.466e-06
297.5,6.873e-06
298.0,1.127e-05
298.5,1.175e-05
299.0,2.695e-05
299.5,4.878e-05
300.0,5.683e-05
300.5,8.811e-05
301.0,0.0001826
301.5,0.0003407
302.0,0.0003214
302.5,0.0006255
303.0,0.001119
303.5,0.001408
304.0,0.001332
304.5,0.002034
305.0,0.003195
305.5,0.00374
306.0,0.003644
306.5,0.004598
307.0,0.007057
307.5,0.009698
308.0,0.01027
308.5,0.01231
309.0,0.01245
309.5,0.01425
310.0,0.01431
310.5,0.02313
311.0,0.02902
311.5,0.02796
312.0,0.02808
312.5,0.03427
313.0,0.03717
313.5,0.03585
314.0,0.04505
314.5,0.04034
315.0,0.05296
315.5,0.04384
316.0,0.03861
316.5,0.05587
317.0,0.06911
317.5,0.07143
318.0,0.05598
318.5,0.07044
319.0,0.08407
319.5,0.0673
320.0,0.08086
320.5,0.1027
321.0,0.09282
321.5,0.08885
322.0,0.09253
322.5,0.08029
323.0,0.0807
323.5,0.1004
324.0,0.117
324.5,0.1179
325.0,0.1004
325.5,0.1301
326.0,0.1594
326.5,0.1601
327.0,0.1586
327.5,0.1522
328.0,0.1341
328.5,0.1417
329.0,0.1706
329.5,0.1936
330.0,0.1941
330.5,0.1537
331.0,0.1557
331.5,0.1585
332.0,0.1721
332.5,0.1704
333.0,0.1689
333.5,0.1513
334.0,0.1543
334.5,0.1787
335.0,0.1682
335.5,0.1985
336.0,0.1369
336.5,0.1571
337.0,0.128
337.5,0.1584
338.0,0.1552
338.5,0.1807
339.0,0.1776
339.5,0.1707
340.0,0.1978
340.5,0.1778
341.0,0.1742
341.5,0.1585
342.0,0.1886
342.5,0.1756
343.0,0.193
343.5,0.1815
344.0,0.1329
344.5,0.1353
345.0,0.1771
345.5,0.1797
346.0,0.152
346.5,0.1713
347.0,0.1837
347.5,0.1482
348.0,0.1678
348.5,0.1669
349.0,0.1542
349.5,0.1522
350.0,0.1875
350.5,0.1971
351.0,0.1756
351.5,0.1707
352.0,0.1823
352.5,0.1415
353.0,0.1774
353.5,0.189
354.0,0.1954
354.5,0.1974
355.0,0.1961
355.5,0.1765
356.0,0.184
356.5,0.1565
357.0,0.1289
357.5,0.1572
358.0,0.1241
358.5,0.1056
359.0,0.1472
359.5,0.1871
360.0,0.1975
360.5,0.1573
361.0,0.1428
361.5,0.1638
362.0,0.1412
362.5,0.1947
363.0,0.1742
363.5,0.1599
364.0,0.1948
364.5,0.1659
365.0,0.1684
365.5,0.2106
366.0,0.2223
366.5,0.2081
367.0,0.2019
367.5,0.2088
368.0,0.182
368.5,0.183
369.0,0.1969
369.5,0.2091
370.0,0.2221
370.5,0.1718
371.0,0.1829
371.5,0.228
372.0,0.1507
372.5,0.1801
373.0,0.1825
373.5,0.1183
374.0,0.1713
374.5,0.1414
375.0,0.1369
375.5,0.2036
376.0,0.1682
376.5,0.1737
377.0,0.1832
377.5,0.2135
378.0,0.2306
378.5,0.2171
379.0,0.1785
379.5,0.1624
380.0,0.1682
380.5,0.2029
381.0,0.2025
381.5,0.1599
382.0,0.1415
382.5,0.1201
383.0,0.1108
383.5,0.1063
384.0,0.1169
384.5,0.1712
385.0,0.1692
385.5,0.157
386.0,0.1339
386.5,0.1753
387.0,0.1451
387.5,0.1623
388.0,0.1493
388.5,0.147
389.0,0.1581
389.5,0.1908
390.0,0.1907
390.5,0.1748
391.0,0.205
391.5,0.2083
392.0,0.1748
392.5,0.1559
393.0,0.0864
393.5,0.06257
394.0,0.1269
394.5,0.1607
395.0,0.1953
395.5,0.1977
396.0,0.1707
396.5,0.09943
397.0,0.07434
397.5,0.1506
398.0,0.2101
398.5,0.2163
399.0,0.2334
399.5,0.2318
400.0,0.2398
401.0,0.2355
402.0,0.2465
403.0,0.2324
404.0,0.2271
405.0,0.2253
406.0,0.22
407.0,0.2147
408.0,0.2214
409.0,0.2352
410.0,0.204
411.0,0.2193
412.0,0.2338
413.0,0.2263
414.0,0.2274
415.0,0.2262
416.0,0.2284
417.0,0.221
418.0,0.2152
419.0,0.2164
420.0,0.2137
421.0,0.2219
422.0,0.2092
423.0,0.2027
424.0,0.2126
425.0,0.2106
426.0,0.2036
427.0,0.1983
428.0,0.1918
429.0,0.1803
430.0,0.1566
431.0,0.154
432.0,0.1972
433.0,0.1967
434.0,0.1813
435.0,0.1879
436.0,0.2102
437.0,0.2059
438.0,0.1861
439.0,0.191
440.0,0.1955
441.0,0.2009
442.0,0.2138
443.0,0.2066
444.0,0.2096
445.0,0.2036
446.0,0.1929
447.0,0.207
448.0,0.2085
449.0,0.2076
450.0,0.2117
451.0,0.2179
452.0,0.2083
453.0,0.1945
454.0,0.2016
455.0,0.2012
456.0,0.2043
457.0,0.206
458.0,0.1973
459.0,0.1947
460.0,0.1936
461.0,0.1965
462.0,0.1966
463.0,0.194
464.0,0.1896
465.0,0.1859
466.0,0.1864
467.0,0.1815
468.0,0.1821
469.0,0.1815
470.0,0.1744
471.0,0.173
472.0,0.1809
473.0,0.1773
474.0,0.1761
475.0,0.1762
476.0,0.1695
477.0,0.1685
478.0,0.1717
479.0,0.1691
480.0,0.168
481.0,0.1696
482.0,0.1691
483.0,0.1658
484.0,0.1613
485.0,0.1527
486.0,0.1326
487.0,0.138
488.0,0.1502
489.0,0.1495
490.0,0.156
491.0,0.1522
492.0,0.1426
493.0,0.1462
494.0,0.1465
495.0,0.1467
496.0,0.1465
497.0,0.1476
498.0,0.1395
499.0,0.14
500.0,0.1347
501.0,0.131
502.0,0.128
503.0,0.132
504.0,0.1275
505.0,0.1311
506.0,0.1344
507.0,0.127
508.0,0.1222
509.0,0.1249
510.0,0.1234
511.0,0.1259
512.0,0.1263
513.0,0.1186
514.0,0.1169
515.0,0.1149
516.0,0.1138
517.0,0.1004
518.0,0.1048
519.0,0.1091
520.0,0.1122
521.0,0.1123
522.0,0.1116
523.0,0.1087
524.0,0.1117
525.0,0.1121
526.0,0.1063
527.0,0.09926
528.0,0.1041
529.0,0.1089
530.0,0.1065
531.0,0.1073
532.0,0.1028
533.0,0.09911
534.0,0.1014
535.0,0.1029
536.0,0.1032
537.0,0.09842
538.0,0.09946
539.0,0.09798
540.0,0.09331
541.0,0.09323
542.0,0.09539
543.0,0.09369
544.0,0.09469
545.0,0.09382
546.0,0.09355
547.0,0.09284
548.0,0.0911
549.0,0.09077
550.0,0.09122
551.0,0.08949
552.0,0.08947
553.0,0.08725
554.0,0.08872
555.0,0.08827
556.0,0.08648
557.0,0.08315
558.0,0.08186
559.0,0.07969
560.0,0.08005
561.0,0.08044
562.0,0.07922
563.0,0.08076
564.0,0.07799
565.0,0.07676
566.0,0.07508
567.0,0.07593
568.0,0.07468
569.0,0.07233
570.0,0.07183
571.0,0.07091
572.0,0.07205
573.0,0.07235
574.0,0.07168
575.0,0.06992
576.0,0.06886
577.0,0.0692
578.0,0.0678
579.0,0.06773
580.0,0.06869
581.0,0.06868
582.0,0.06961
583.0,0.06944
584.0,0.0697
585.0,0.06762
586.0,0.0658
587.0,0.06677
588.0,0.06467
589.0,0.05677
590.0,0.05903
591.0,0.06219
592.0,0.06093
593.0,0.06147
594.0,0.06057
595.0,0.05861
596.0,0.06066
597.0,0.05956
598.0,0.05902
599.0,0.05868
600.0,0.05841
601.0,0.05761
602.0,0.05688
603.0,0.05748
604.0,0.0581
605.0,0.0575
606.0,0.05699
607.0,0.05729
608.0,0.05638
609.0,0.05621
610.0,0.05556
611.0,0.0556
612.0,0.05518
613.0,0.05422
614.0,0.05323
615.0,0.05414
616.0,0.05212
617.0,0.05177
618.0,0.05351
619.0,0.05271
620.0,0.05278
621.0,0.05256
622.0,0.05166
623.0,0.05058
624.0,0.04946
625.0,0.04912
626.0,0.04962
627.0,0.04989
628.0,0.04597
629.0,0.04807
630.0,0.0467
631.0,0.04764
632.0,0.04686
633.0,0.04813
634.0,0.04749
635.0,0.048
636.0,0.04715
637.0,0.04771
638.0,0.04798
639.0,0.04723
640.0,0.04655
641.0,0.0463
642.0,0.04591
643.0,0.04633
644.0,0.04598
645.0,0.04581
646.0,0.04447
647.0,0.04363
648.0,0.04343
649.0,0.04238
650.0,0.0425
651.0,0.04414
652.0,0.04193
653.0,0.04314
654.0,0.04247
655.0,0.04059
656.0,0.03585
657.0,0.03666
658.0,0.04095
659.0,0.04106
660.0,0.04104
661.0,0.04112
662.0,0.041
663.0,0.04002
664.0,0.04034
665.0,0.0402
666.0,0.04005
667.0,0.03984
668.0,0.03969
669.0,0.04012
670.0,0.03975
671.0,0.03957
672.0,0.03908
673.0,0.03953
674.0,0.03919
675.0,0.03864
676.0,0.03873
677.0,0.03819
678.0,0.03814
679.0,0.03735
680.0,0.03748
681.0,0.03706
682.0,0.03683
683.0,0.03658
684.0,0.03621
685.0,0.03634
686.0,0.03595
687.0,0.02252
688.0,0.0268
689.0,0.02679
690.0,0.02815
691.0,0.02973
692.0,0.03088
693.0,0.03045
694.0,0.03001
695.0,0.03127
696.0,0.03115
697.0,0.03321
698.0,0.03254
699.0,0.03144
700.0,0.03091
701.0,0.03042
702.0,0.03056
703.0,0.03046
704.0,0.03138
705.0,0.03126
706.0,0.03113
707.0,0.03102
708.0,0.03094
709.0,0.03088
710.0,0.0307
711.0,0.03057
712.0,0.03039
713.0,0.02991
714.0,0.02986
715.0,0.02871
716.0,0.02859
717.0,0.02414
718.0,0.02188
719.0,0.01978
720.0,0.02069
721.0,0.02307
722.0,0.02678
723.0,0.02453
724.0,0.02171
725.0,0.02122
726.0,0.02224
727.0,0.02247
728.0,0.02088
729.0,0.02173
730.0,0.02298
731.0,0.02178
732.0,0.0234
733.0,0.02487
734.0,0.02538
735.0,0.02471
736.0,0.02458
737.0,0.02455
738.0,0.02493
739.0,0.0243
740.0,0.02486
741.0,0.02451
742.0,0.02443
743.0,0.02493
744.0,0.02474
745.0,0.02463
746.0,0.02462
747.0,0.02456
748.0,0.02438
749.0,0.02398
750.0,0.02386
751.0,0.02352
752.0,0.02352
753.0,0.02352
754.0,0.02346
755.0,0.02322
756.0,0.02312
757.0,0.02304
758.0,0.02265
759.0,0.02202
760.0,0.003059
761.0,0.001566
762.0,0.01012
763.0,0.004714
764.0,0.00729
765.0,0.009964
766.0,0.01256
767.0,0.01624
768.0,0.01908
769.0,0.01949
770.0,0.02018
771.0,0.0203
772.0,0.02026
773.0,0.0203
774.0,0.02009
775.0,0.01985
776.0,0.02
777.0,0.01964
778.0,0.01942
779.0,0.01933
780.0,0.01913
781.0,0.01907
782.0,0.0191
783.0,0.01869
784.0,0.0187
785.0,0.01847
786.0,0.01859
787.0,0.01814
788.0,0.01781
789.0,0.01771
790.0,0.01709
791.0,0.01722
792.0,0.01702
793.0,0.01666
794.0,0.01695
795.0,0.01714
796.0,0.01644
797.0,0.01639
798.0,0.01688
799.0,0.01668
800.0,0.01629
801.0,0.01614
802.0,0.01602
803.0,0.01582
804.0,0.01577
805.0,0.01568
806.0,0.01608
807.0,0.0158
808.0,0.01575
809.0,0.01535
810.0,0.01512
811.0,0.01504
812.0,0.01447
813.0,0.01406
814.0,0.01207
815.0,0.01194
816.0,0.01095
817.0,0.01113
818.0,0.01063
819.0,0.01205
820.0,0.01121
821.0,0.01338
822.0,0.01288
823.0,0.008222
824.0,0.01232
825.0,0.01288
826.0,0.01225
827.0,0.01299
828.0,0.01068
829.0,0.01203
830.0,0.0118
831.0,0.0118
832.0,0.01133
833.0,0.01219
834.0,0.01163
835.0,0.01289
836.0,0.01218
837.0,0.01282
838.0,0.01233
839.0,0.01252
840.0,0.01275
841.0,0.0125
842.0,0.0125
843.0,0.01246
844.0,0.01222
845.0,0.0126
846.0,0.01249
847.0,0.01221
848.0,0.01207
849.0,0.01167
850.0,0.01113
851.0,0.01171
852.0,0.01158
853.0,0.0111
854.0,0.009536
855.0,0.01045
856.0,0.01136
857.0,0.01158
858.0,0.01145
859.0,0.01142
860.0,0.01139
861.0,0.01128
862.0,0.01142
863.0,0.01164
864.0,0.01102
865.0,0.01088
866.0,0.009739
867.0,0.01012
868.0,0.01097
869.0,0.0107
870.0,0.01096
871.0,0.01076
872.0,0.01068
873.0,0.01062
874.0,0.01044
875.0,0.01018
876.0,0.01024
877.0,0.0103
878.0,0.01037
879.0,0.01017
880.0,0.009909
881.0,0.009714
882.0,0.009884
883.0,0.00988
884.0,0.009789
885.0,0.009817
886.0,0.009297
887.0,0.009374
888.0,0.009461
889.0,0.009548
890.0,0.009402
891.0,0.009361
892.0,0.009029
893.0,0.008666
894.0,0.008255
895.0,0.007678
896.0,0.007113
897.0,0.005939
898.0,0.006546
899.0,0.004748
900.0,0.006713
901.0,0.005008
902.0,0.006018
903.0,0.006017
904.0,0.007859
905.0,0.007509
906.0,0.006947
907.0,0.005409
908.0,0.00553
909.0,0.006071
910.0,0.005205
911.0,0.005602
912.0,0.005877
913.0,0.005218
914.0,0.00516
915.0,0.005641
916.0,0.004636
917.0,0.006112
918.0,0.004737
919.0,0.00619
920.0,0.006268
921.0,0.006563
922.0,0.005724
923.0,0.006291
924.0,0.005833
925.0,0.005663
926.0,0.005722
927.0,0.006489
928.0,0.004461
929.0,0.003996
930.0,0.003006
931.0,0.002821
932.0,0.00193
933.0,0.00152
934.0,0.0007746
935.0,0.001556
936.0,0.0009187
937.0,0.0009265
938.0,0.001158
939.0,0.00264
940.0,0.003259
941.0,0.002353
942.0,0.002767
943.0,0.00171
944.0,0.001821
945.0,0.002391
946.0,0.001112
947.0,0.002375
948.0,0.001678
949.0,0.003296
950.0,0.0007746
951.0,0.003224
952.0,0.001575
953.0,0.002104
954.0,0.002667
955.0,0.002128
956.0,0.002057
957.0,0.001548
958.0,0.003049
959.0,0.002315
960.0,0.002625
961.0,0.002999
962.0,0.002806
963.0,0.003308
964.0,0.002976
965.0,0.003271
966.0,0.003257
967.0,0.003222
968.0,0.00458
969.0,0.00479
970.0,0.004314
971.0,0.005067
972.0,0.004783
973.0,0.004027
974.0,0.003778
975.0,0.003936
976.0,0.003677
977.0,0.004294
978.0,0.004014
979.0,0.004235
980.0,0.003917
981.0,0.004848
982.0,0.004572
983.0,0.004341
984.0,0.00499
985.0,0.004505
986.0,0.005068
987.0,0.004921
988.0,0.004891
989.0,0.005011
990.0,0.004828
991.0,0.004978
992.0,0.004991
993.0,0.004835
994.0,0.004958
995.0,0.004938
996.0,0.004892
997.0,0.004883
998.0,0.004841
999.0,0.004807
1000.0,0.004748
1001.0,0.004798
1002.0,0.004619
1003.0,0.004675
1004.0,0.004535
1005.0,0.004362
1006.0,0.004509
1007.0,0.00459
1008.0,0.004543
1009.0,0.004496
1010.0,0.004457
1011.0,0.004499
1012.0,0.004437
1013.0,0.004456
1014.0,0.004409
1015.0,0.004363
1016.0,0.004325
1017.0,0.004318
1018.0,0.004289
1019.0,0.00417
1020.0,0.004231
1021.0,0.004211
1022.0,0.004158
1023.0,0.004186
1024.0,0.004106
1025.0,0.004156
1026.0,0.00412
1027.0,0.004095
1028.0,0.004071
1029.0,0.004007
1030.0,0.004023
1031.0,0.00399
1032.0,0.003964
1033.0,0.003889
1034.0,0.003875
1035.0,0.003872
1036.0,0.003876
1037.0,0.003799
1038.0,0.003802
1039.0,0.003786
1040.0,0.003756
1041.0,0.003756
1042.0,0.003715
1043.0,0.00369
1044.0,0.003689
1045.0,0.003625
1046.0,0.00357
1047.0,0.003588
1048.0,0.003595
1049.0,0.003568
1050.0,0.003538
1051.0,0.003519
1052.0,0.003491
1053.0,0.00345
1054.0,0.003444
1055.0,0.003432
1056.0,0.003406
1057.0,0.003381
1058.0,0.003286
1059.0,0.003276
1060.0,0.003258
1061.0,0.003242
1062.0,0.003245
1063.0,0.003201
1064.0,0.003228
1065.0,0.00319
1066.0,0.003118
1067.0,0.003145
1068.0,0.003063
1069.0,0.002959
1070.0,0.003045
1071.0,0.003089
1072.0,0.003036
1073.0,0.002984
1074.0,0.003059
1075.0,0.002871
1076.0,0.003033
1077.0,0.002953
1078.0,0.002882
1079.0,0.002955
1080.0,0.002872
1081.0,0.002764
1082.0,0.002818
1083.0,0.00282
1084.0,0.002718
1085.0,0.002833
1086.0,0.002529
1087.0,0.002639
1088.0,0.002762
1089.0,0.002645
1090.0,0.002557
1091.0,0.002716
1092.0,0.002704
1093.0,0.002213
1094.0,0.002449
1095.0,0.002306
1096.0,0.002178
1097.0,0.002598
1098.0,0.002124
1099.0,0.002219
1100.0,0.00202
1101.0,0.002049
1102.0,0.001934
1103.0,0.001897
1104.0,0.001895
1105.0,0.002114
1106.0,0.001516
1107.0,0.001973
1108.0,0.001605
1109.0,0.001607
1110.0,0.001929
1111.0,0.001209
1112.0,0.00158
1113.0,0.0009208
1114.0,0.001041
1115.0,0.0008395
1116.0,0.0006403
1117.0,0.000207
1118.0,0.0007019
1119.0,0.0003173
1120.0,0.0004049
1121.0,0.0005543
1122.0,0.0002107
1123.0,0.000359
1124.0,0.0002979
1125.0,0.0003987
1126.0,0.0001234
1127.0,0.0004513
1128.0,0.0002515
1129.0,0.0002681
1130.0,0.0001691
1131.0,0.0009266
1132.0,0.0006995
1133.0,0.0004122
1134.0,9.217e-05
1135.0,3.345e-05
1136.0,0.0003315
1137.0,0.0008865
1138.0,0.0005962
1139.0,0.0009531
1140.0,0.0007673
1141.0,0.000558
1142.0,0.0006536
1143.0,0.0009754
1144.0,0.0002948
1145.0,0.0003804
1146.0,0.0004113
1147.0,0.0001288
1148.0,0.0008139
1149.0,0.0006241
1150.0,0.0003134
1151.0,0.0005651
1152.0,0.000718
1153.0,0.0007006
1154.0,0.0003559
1155.0,0.0009471
1156.0,0.000834
1157.0,0.0009548
1158.0,0.0009399
1159.0,0.00103
1160.0,0.0008526
1161.0,0.001093
1162.0,0.00109
1163.0,0.00156
1164.0,0.001295
1165.0,0.001199
1166.0,0.001192
1167.0,0.001313
1168.0,0.001324
1169.0,0.001363
1170.0,0.001497
1171.0,0.001447
1172.0,0.001477
1173.0,0.001478
1174.0,0.0009867
1175.0,0.001439
1176.0,0.001604
1177.0,0.001519
1178.0,0.001079
1179.0,0.001602
1180.0,0.00139
1181.0,0.001438
1182.0,0.0009262
1183.0,0.001414
1184.0,0.001297
1185.0,0.001236
1186.0,0.001512
1187.0,0.001421
1188.0,0.0009282
1189.0,0.001307
1190.0,0.001455
1191.0,0.001358
1192.0,0.00147
1193.0,0.001392
1194.0,0.00144
1195.0,0.001344
1196.0,0.00128
1197.0,0.001439
1198.0,0.001293
1199.0,0.001063
1200.0,0.001348
1201.0,0.001285
1202.0,0.001276
1203.0,0.001268
1204.0,0.001074
1205.0,0.001304
1206.0,0.001465
1207.0,0.001255
1208.0,0.001242
1209.0,0.001264
1210.0,0.001323
1211.0,0.001242
1212.0,0.001215
1213.0,0.001381
1214.0,0.001243
1215.0,0.001211
1216.0,0.001363
1217.0,0.001316
1218.0,0.001343
1219.0,0.001319
1220.0,0.001336
1221.0,0.001349
1222.0,0.001304
1223.0,0.001285
1224.0,0.00127
1225.0,0.001323
1226.0,0.001331
1227.0,0.001208
1228.0,0.001332
1229.0,0.001319
1230.0,0.001289
1231.0,0.00133
1232.0,0.001318
1233.0,0.001258
1234.0,0.001319
1235.0,0.001304
1236.0,0.001311
1237.0,0.001284
1238.0,0.001298
1239.0,0.001277
1240.0,0.001279
1241.0,0.001266
1242.0,0.001261
1243.0,0.001247
1244.0,0.00125
1245.0,0.001252
1246.0,0.001241
1247.0,0.001231
1248.0,0.001225
1249.0,0.001226
1250.0,0.001214
1251.0,0.001193
1252.0,0.001192
1253.0,0.001175
1254.0,0.001156
1255.0,0.001178
1256.0,0.001135
1257.0,0.001124
1258.0,0.001146
1259.0,0.001091
1260.0,0.001095
1261.0,0.001018
1262.0,0.0009785
1263.0,0.0009772
1264.0,0.0008854
1265.0,0.0009657
1266.0,0.0009182
1267.0,0.0009372
1268.0,0.0008769
1269.0,0.0004932
1270.0,0.0009239
1271.0,0.0009884
1272.0,0.00099
1273.0,0.000975
1274.0,0.0009768
1275.0,0.0009901
1276.0,0.0009989
1277.0,0.001005
1278.0,0.001026
1279.0,0.001013
1280.0,0.0009971
1281.0,0.0009507
1282.0,0.0009169
1283.0,0.0009837
1284.0,0.001003
1285.0,0.001007
1286.0,0.00102
1287.0,0.0009969
1288.0,0.0009944
1289.0,0.0009527
1290.0,0.0009799
1291.0,0.0009916
1292.0,0.0009146
1293.0,0.0009623
1294.0,0.0009516
1295.0,0.0009416
1296.0,0.0008869
1297.0,0.0008282
1298.0,0.0009035
1299.0,0.0009468
1300.0,0.0007717
1301.0,0.0007988
1302.0,0.0008906
1303.0,0.0007558
1304.0,0.0006215
1305.0,0.0008607
1306.0,0.0008578
1307.0,0.0006327
1308.0,0.0007458
1309.0,0.0008421
1310.0,0.0006134
1311.0,0.0007033
1312.0,0.0006812
1313.0,0.0006619
1314.0,0.0005779
1315.0,0.0005691
1316.0,0.0006804
1317.0,0.0006359
1318.0,0.0007009
1319.0,0.0005194
1320.0,0.0005007
1321.0,0.0005973
1322.0,0.0006011
1323.0,0.0004281
1324.0,0.0005006
1325.0,0.0006504
1326.0,0.0005409
1327.0,0.0005098
1328.0,0.0004279
1329.0,0.0003054
1330.0,0.0004113
1331.0,0.0002288
1332.0,0.0002378
1333.0,0.0003437
1334.0,0.0002863
1335.0,0.0004114
1336.0,0.0003121
1337.0,0.0002701
1338.0,0.0002942
1339.0,0.0002929
1340.0,0.0002837
1341.0,0.0002729
1342.0,0.0002877
1343.0,0.0001818
1344.0,0.000104
1345.0,0.0001544
1346.0,7.068e-05
1347.0,7.142e-05
1348.0,4.156e-06
1349.0,1.53e-05
1350.0,1.592e-05
1351.0,3.719e-06
1352.0,9.877e-07
1353.0,4.995e-08
1354.0,1.72e-07
1355.0,1.381e-09
1356.0,2.418e-08
1357.0,3.675e-08
1358.0,1.621e-09
1359.0,2.042e-10
1360.0,7.38e-10
1361.0,8.255e-13
1362.0,2.258e-15
1363.0,9.923e-10
1364.0,4.097e-10
1365.0,7.883e-16
1366.0,4.301e-09
1367.0,1.755e-09
1368.0,6.087e-18
1369.0,1.509e-10
1370.0,7.433e-11
1371.0,4.213e-12
1372.0,9.519e-10
1373.0,1.919e-08
1374.0,8.909e-08
1375.0,1.617e-07
1376.0,1.451e-07
1377.0,6.619e-08
1378.0,6.499e-07
1379.0,2.764e-08
1380.0,3.972e-08
1381.0,1.034e-09
1382.0,8.342e-10
1383.0,1.247e-11
1384.0,1.635e-10
1385.0,7.819e-10
1386.0,7.355e-10
1387.0,8.907e-08
1388.0,1.75e-09
1389.0,3.014e-07
1390.0,2.586e-07
1391.0,1.718e-07
1392.0,1.112e-08
1393.0,5.895e-08
1394.0,3.036e-08
1395.0,2.223e-10
1396.0,1.074e-12
1397.0,2.319e-08
1398.0,6.892e-07
1399.0,4.355e-07
1400.0,4.594e-13
1401.0,1.906e-12
1402.0,1.214e-06
1403.0,1.522e-06
1404.0,4.597e-07
1405.0,1.053e-10
1406.0,1.191e-06
1407.0,1.044e-07
1408.0,9.686e-07
1409.0,3.215e-07
1410.0,2.574e-07
1411.0,1.307e-06
1412.0,1.77e-06
1413.0,1.927e-05
1414.0,2.009e-07
1415.0,9.58e-08
1416.0,3.283e-05
1417.0,9.24e-06
1418.0,1.047e-05
1419.0,1.569e-06
1420.0,6.302e-06
1421.0,6.814e-06
1422.0,4.273e-05
1423.0,7.731e-06
1424.0,1.477e-05
1425.0,2.179e-05
1426.0,2.521e-05
1427.0,4.869e-05
1428.0,3.086e-06
1429.0,3.51e-05
1430.0,6.297e-05
1431.0,6.984e-05
1432.0,2.391e-06
1433.0,4.238e-05
1434.0,2.059e-05
1435.0,1.972e-05
1436.0,4.031e-05
1437.0,3.045e-05
1438.0,1.211e-05
1439.0,5.594e-05
1440.0,4.12e-05
1441.0,3.012e-05
1442.0,3.354e-05
1443.0,4.364e-05
1444.0,6.226e-05
1445.0,4.666e-05
1446.0,1.988e-05
1447.0,3.198e-05
1448.0,0.0001263
1449.0,0.0001066
1450.0,2.33e-05
1451.0,8.876e-06
1452.0,5.989e-05
1453.0,8.07e-05
1454.0,0.0001518
1455.0,6.465e-05
1456.0,8.778e-05
1457.0,0.000124
1458.0,0.0001522
1459.0,0.0001823
1460.0,8.695e-05
1461.0,8.915e-05
1462.0,0.0001386
1463.0,3.922e-05
1464.0,0.0001699
1465.0,9.646e-05
1466.0,6.068e-05
1467.0,2.964e-05
1468.0,7.302e-05
1469.0,9.26e-05
1470.0,4.16e-05
1471.0,1.408e-05
1472.0,3.944e-05
1473.0,6.379e-05
1474.0,9.898e-05
1475.0,0.0002062
1476.0,6.371e-05
1477.0,6.347e-05
1478.0,5.948e-05
1479.0,0.0001235
1480.0,5.379e-05
1481.0,0.0001162
1482.0,5.286e-05
1483.0,0.0001564
1484.0,0.0001459
1485.0,0.0001265
1486.0,0.0001232
1487.0,5.077e-05
1488.0,9.69e-05
1489.0,0.00021
1490.0,0.000192
1491.0,0.0002229
1492.0,0.0001749
1493.0,0.0001962
1494.0,0.0002268
1495.0,0.0001975
1496.0,0.0001826
1497.0,0.0002665
1498.0,0.0002082
1499.0,0.0002492
1500.0,0.0002946
1501.0,0.0003114
1502.0,0.0002569
1503.0,0.0002111
1504.0,0.0001629
1505.0,0.000202
1506.0,0.0003093
1507.0,0.0002943
1508.0,0.0002783
1509.0,0.0002014
1510.0,0.0003192
1511.0,0.0003059
1512.0,0.0003032
1513.0,0.0002726
1514.0,0.000251
1515.0,0.0003104
1516.0,0.0002944
1517.0,0.0002854
1518.0,0.0002839
1519.0,0.0002757
1520.0,0.0003001
1521.0,0.0003238
1522.0,0.0003043
1523.0,0.0003273
1524.0,0.0003153
1525.0,0.0002981
1526.0,0.0003025
1527.0,0.000299
1528.0,0.0003214
1529.0,0.0003032
1530.0,0.0002965
1531.0,0.0003044
1532.0,0.000318
1533.0,0.0003176
1534.0,0.0003109
1535.0,0.0003079
1536.0,0.0003136
1537.0,0.0003056
1538.0,0.0003088
1539.0,0.0003025
1540.0,0.0003032
1541.0,0.0003045
1542.0,0.0003
1543.0,0.0003051
1544.0,0.0003002
1545.0,0.000306
1546.0,0.0003002
1547.0,0.0002955
1548.0,0.0002948
1549.0,0.0002969
1550.0,0.0002941
1551.0,0.0002954
1552.0,0.0002921
1553.0,0.00029
1554.0,0.0002867
1555.0,0.0002869
1556.0,0.0002859
1557.0,0.0002886
1558.0,0.0002864
1559.0,0.0002839
1560.0,0.0002852
1561.0,0.0002865
1562.0,0.0002821
1563.0,0.0002793
1564.0,0.0002799
1565.0,0.0002799
1566.0,0.0002755
1567.0,0.0002754
1568.0,0.0002719
1569.0,0.0002732
1570.0,0.000275
1571.0,0.0002766
1572.0,0.0002743
1573.0,0.0002718
1574.0,0.0002615
1575.0,0.0002577
1576.0,0.000253
1577.0,0.0002458
1578.0,0.0002575
1579.0,0.000259
1580.0,0.0002608
1581.0,0.0002564
1582.0,0.0002507
1583.0,0.0002512
1584.0,0.0002555
1585.0,0.0002578
1586.0,0.0002541
1587.0,0.0002494
1588.0,0.0002421
1589.0,0.000234
1590.0,0.0002387
1591.0,0.000244
1592.0,0.0002505
1593.0,0.000254
1594.0,0.0002528
1595.0,0.0002491
1596.0,0.0002411
1597.0,0.0002465
1598.0,0.0002496
1599.0,0.0002463
1600.0,0.0002441
1601.0,0.00024
1602.0,0.0002401
1603.0,0.0002421
1604.0,0.0002396
1605.0,0.0002389
1606.0,0.0002356
1607.0,0.0002371
1608.0,0.0002362
1609.0,0.0002295
1610.0,0.0002242
1611.0,0.0002276
1612.0,0.0002298
1613.0,0.0002295
1614.0,0.000229
1615.0,0.0002234
1616.0,0.0002194
1617.0,0.0002231
1618.0,0.0002265
1619.0,0.0002216
1620.0,0.0002166
1621.0,0.0002185
1622.0,0.0002213
1623.0,0.000224
1624.0,0.0002208
1625.0,0.0002194
1626.0,0.0002194
1627.0,0.0002205
1628.0,0.0002193
1629.0,0.000217
1630.0,0.0002151
1631.0,0.0002132
1632.0,0.0002122
1633.0,0.0002049
1634.0,0.0002096
1635.0,0.0002056
1636.0,0.0002037
1637.0,0.0002012
1638.0,0.000188
1639.0,0.0001959
1640.0,0.0001858
1641.0,0.0001934
1642.0,0.000197
1643.0,0.0001839
1644.0,0.000196
1645.0,0.0001891
1646.0,0.0001833
1647.0,0.0001977
1648.0,0.0001819
1649.0,0.0001916
1650.0,0.0001927
1651.0,0.0001764
1652.0,0.0001896
1653.0,0.0001911
1654.0,0.0001791
1655.0,0.0001901
1656.0,0.000186
1657.0,0.0001872
1658.0,0.0001895
1659.0,0.0001875
1660.0,0.0001887
1661.0,0.0001871
1662.0,0.000181
1663.0,0.0001855
1664.0,0.0001831
1665.0,0.0001713
1666.0,0.0001356
1667.0,0.0001688
1668.0,0.0001758
1669.0,0.0001764
1670.0,0.0001794
1671.0,0.0001735
1672.0,0.0001712
1673.0,0.0001749
1674.0,0.0001701
1675.0,0.0001672
1676.0,0.0001681
1677.0,0.0001672
1678.0,0.0001615
1679.0,0.0001654
1680.0,0.0001582
1681.0,0.0001525
1682.0,0.0001613
1683.0,0.0001643
1684.0,0.0001497
1685.0,0.0001653
1686.0,0.0001644
1687.0,0.000157
1688.0,0.0001626
1689.0,0.0001604
1690.0,0.0001592
1691.0,0.0001427
1692.0,0.0001576
1693.0,0.0001623
1694.0,0.000155
1695.0,0.0001596
1696.0,0.0001593
1697.0,0.0001302
1698.0,0.0001569
1699.0,0.0001543
1700.0,0.0001493
1702.0,0.0001518
1705.0,0.0001455
1710.0,0.0001356
1715.0,0.0001344
1720.0,0.0001316
1725.0,0.0001203
1730.0,0.0001177
1735.0,0.0001084
1740.0,0.0001087
1745.0,0.0001
1750.0,0.0001069
1755.0,9.611e-05
1760.0,0.0001001
1765.0,7.863e-05
1770.0,8.398e-05
1775.0,6.441e-05
1780.0,5.339e-05
1785.0,3.807e-05
1790.0,4.455e-05
1795.0,1.969e-05
1800.0,1.327e-05
1805.0,4.891e-06
1810.0,3.137e-06
1815.0,8.711e-07
1820.0,2.145e-07
1825.0,2.804e-07
1830.0,6.747e-10
1835.0,1.022e-09
1840.0,5.96e-12
1845.0,6.373e-10
1850.0,2.877e-10
1855.0,2.749e-11
1860.0,1.576e-09
1865.0,2.196e-09
1870.0,1.201e-14
1875.0,2.171e-14
1880.0,1.158e-08
1885.0,6.166e-09
1890.0,3.388e-08
1895.0,1.965e-08
1900.0,8.378e-11
1905.0,5.707e-11
1910.0,2.765e-09
1915.0,2.694e-09
1920.0,7.094e-08
1925.0,1.674e-07
1930.0,9.649e-08
1935.0,7.502e-07
1940.0,7.485e-07
1945.0,3.221e-06
1950.0,6.514e-06
1955.0,5.741e-06
1960.0,1.065e-05
1965.0,1.612e-05
1970.0,2.355e-05
1975.0,2.698e-05
1980.0,2.708e-05
1985.0,2.929e-05
1990.0,3.016e-05
1995.0,3.193e-05
2000.0,3.359e-05
2005.0,2.743e-05
2010.0,4.09e-05
2015.0,3.083e-05
2020.0,3.306e-05
2025.0,3.611e-05
2030.0,3.248e-05
2035.0,3.555e-05
2040.0,3.329e-05
2045.0,3.416e-05
2050.0,3.447e-05
2055.0,3.257e-05
2060.0,3.111e-05
2065.0,3.146e-05
2070.0,3.074e-05
2075.0,3.127e-05
2080.0,3.015e-05
2085.0,2.97e-05
2090.0,2.98e-05
2095.0,2.859e-05
2100.0,2.621e-05
2105.0,2.836e-05
2110.0,2.684e-05
2115.0,2.737e-05
2120.0,2.533e-05
2125.0,2.555e-05
2130.0,2.571e-05
2135.0,2.571e-05
2140.0,2.572e-05
2145.0,2.522e-05
2150.0,2.324e-05
2155.0,2.306e-05
2160.0,2.263e-05
2165.0,2.036e-05
2170.0,2.161e-05
2175.0,2.08e-05
2180.0,2.127e-05
2185.0,1.863e-05
2190.0,2.012e-05
2195.0,1.974e-05
2200.0,1.696e-05
2205.0,1.787e-05
2210.0,1.944e-05
2215.0,1.83e-05
2220.0,1.859e-05
2225.0,1.781e-05
2230.0,1.775e-05
2235.0,1.71e-05
2240.0,1.673e-05
2245.0,1.582e-05
2250.0,1.605e-05
2255.0,1.468e-05
2260.0,1.425e-05
2265.0,1.454e-05
2270.0,1.343e-05
2275.0,1.308e-05
2280.0,1.371e-05
2285.0,1.261e-05
2290.0,1.25e-05
2295.0,1.205e-05
2300.0,1.123e-05
2305.0,1.124e-05
2310.0,1.244e-05
2315.0,1.086e-05
2320.0,9.267e-06
2325.0,1.048e-05
2330.0,1.037e-05
2335.0,1.059e-05
2340.0,7.807e-06
2345.0,8.908e-06
2350.0,6.788e-06
2355.0,8.009e-06
2360.0,8.517e-06
2365.0,8.346e-06
2370.0,4.482e-06
2375.0,7.11e-06
2380.0,6.721e-06
2385.0,4.56e-06
2390.0,5.513e-06
2395.0,6.111e-06
2400.0,6.727e-06
2405.0,4.873e-06
2410.0,4.84e-06
2415.0,3.742e-06
2420.0,3.59e-06
2425.0,4.59e-06
2430.0,6.474e-06
2435.0,1.789e-06
2440.0,6.176e-06
2445.0,2.566e-06
2450.0,1.559e-06
2455.0,3.12e-06
2460.0,4.294e-06
2465.0,2.897e-06
2470.0,1.85e-06
2475.0,1.786e-06
2480.0,8.023e-07
2485.0,5.122e-07
2490.0,2.896e-07
2495.0,2.499e-07
2500.0,6.367e-07
2505.0,1.252e-07
2510.0,1.852e-07
2515.0,3.847e-08
2520.0,2.149e-08
2525.0,2.441e-09
2530.0,1.695e-11
2535.0,3.749e-12
2540.0,8.895e-12
2545.0,6.898e-16
2550.0,2.797e-18
2555.0,1.342e-14
2560.0,4.029e-16
2565.0,9.018000000000001e-20
2570.0,2.685e-24
2575.0,1.699e-34
2580.0,1.771e-28
2585.0,3.702e-42
2590.0,2.31e-38
2595.0,4.494e-40
2600.0,3.7e-35
2605.0,4.0890000000000004e-42
2610.0,1.408e-41
2615.0,1.4009999999999999e-45
2620.0,1.24e-35
2625.0,2.271e-35
2630.0,0.0
2635.0,1.183e-21
2640.0,2.56e-22
2645.0,1.116e-24
2650.0,1.112e-25
2655.0,1.337e-34
2660.0,1.126e-31
2665.0,1.121e-44
2670.0,0.0
2675.0,5.464999999999999e-44
2680.0,2.282e-30
2685.0,2.18e-31
2690.0,8.156e-31
2695.0,3.2e-33
2700.0,9.32e-29
2705.0,2.643e-26
2710.0,2.105e-31
2715.0,2.6579999999999996e-29
2720.0,0.0
2725.0,5.9509999999999995e-27
2730.0,1.735e-24
2735.0,1.978e-26
2740.0,3.573e-32
2745.0,4.608e-27
2750.0,2.5820000000000002e-26
2755.0,4.155e-28
2760.0,6.225e-23
2765.0,2.922e-29
2770.0,1.436e-26
2775.0,1.7719999999999998e-23
2780.0,8.253e-21
2785.0,3.098e-20
2790.0,7.065e-18
2795.0,1.554e-18
2800.0,4.961e-15
2805.0,9.275e-17
2810.0,3.72e-13
2815.0,1.109e-13
2820.0,1.356e-15
2825.0,1.19e-11
2830.0,2.586e-10
2835.0,3.562e-15
2840.0,7.622e-12
2845.0,2.639e-09
2850.0,4.565e-11
2855.0,1.823e-11
2860.0,9.481e-10
2865.0,6.994e-09
2870.0,1.773e-10
2875.0,1.703e-08
2880.0,1.073e-08
2885.0,1.768e-08
2890.0,7.512e-09
2895.0,1.284e-07
2900.0,3.573e-08
2905.0,4.13e-09
2910.0,1.31e-07
2915.0,5.552e-08
2920.0,1.38e-07
2925.0,4.912e-08
2930.0,2.985e-07
2935.0,3.293e-07
2940.0,7.342e-08
2945.0,6.303e-08
2950.0,2.554e-07
2955.0,1.135e-07
2960.0,2.256e-07
2965.0,3.829e-07
2970.0,1.489e-08
2975.0,3.775e-08
2980.0,5.878e-08
2985.0,3.478e-07
2990.0,5.287e-07
2995.0,1.997e-07
3000.0,3.808e-07
3005.0,1.291e-07
3010.0,3.334e-07
3015.0,2.58e-07
3020.0,2.317e-08
3025.0,3.565e-07
3030.0,2.805e-07
3035.0,1.062e-07
3040.0,8.295e-08
3045.0,1.786e-07
3050.0,4.031e-08
3055.0,9.842e-09
3060.0,2.792e-07
3065.0,1.176e-07
3070.0,6.596e-08
3075.0,2.603e-07
3080.0,1.508e-07
3085.0,6.635e-08
3090.0,9.032e-08
3095.0,2.213e-08
3100.0,1.814e-07
3105.0,3.375e-08
3110.0,2.822e-08
3115.0,8.504e-08
3120.0,4.224e-07
3125.0,1.228e-07
3130.0,2.454e-07
3135.0,4.961e-07
3140.0,1.301e-07
3145.0,1.276e-07
3150.0,2.714e-07
3155.0,2.281e-07
3160.0,3.809e-07
3165.0,6.04e-07
3170.0,5.343e-07
3175.0,3.729e-07
3180.0,4.419e-07
3185.0,3.069e-07
3190.0,1.598e-07
3195.0,8.811e-08
3200.0,1.233e-08
3205.0,8.045e-09
3210.0,3.35e-09
3215.0,1.365e-08
3220.0,4.815e-08
3225.0,5.504e-09
3230.0,9.146e-09
3235.0,2.633e-07
3240.0,1.182e-07
3245.0,2.221e-08
3250.0,8.263e-08
3255.0,3.625e-07
3260.0,3.512e-08
3265.0,7.651e-08
3270.0,3.579e-08
3275.0,2.202e-07
3280.0,9.258e-08
3285.0,4.132e-07
3290.0,3.083e-07
3295.0,3.687e-08
3300.0,5.498e-08
3305.0,1.274e-07
3310.0,1.209e-07
3315.0,1.712e-10
3320.0,1.08e-09
3325.0,1.013e-07
3330.0,1.555e-07
3335.0,3.047e-07
3340.0,1.102e-07
3345.0,1.068e-07
3350.0,2.706e-07
3355.0,1.078e-07
3360.0,1.666e-07
3365.0,2.362e-07
3370.0,1.128e-07
3375.0,2.775e-07
3380.0,1.488e-07
3385.0,2.378e-07
3390.0,3.136e-07
3395.0,3.037e-07
3400.0,4.122e-07
3405.0,1.234e-07
3410.0,2.186e-07
3415.0,2.121e-07
3420.0,4.286e-07
3425.0,3.048e-07
3430.0,2.563e-07
3435.0,3.676e-07
3440.0,2.333e-07
3445.0,3.504e-07
3450.0,3.419e-07
3455.0,2.424e-07
3460.0,3.903e-07
3465.0,2.872e-07
3470.0,3.774e-07
3475.0,3.266e-07
3480.0,3.347e-07
3485.0,3.647e-07
3490.0,3.033e-07
3495.0,3.667e-07
3500.0,3.538e-07
3505.0,3.487e-07
3510.0,3.531e-07
3515.0,3.363e-07
3520.0,3.593e-07
3525.0,3.335e-07
3530.0,3.23e-07
3535.0,2.626e-07
3540.0,2.48e-07
3545.0,2.633e-07
3550.0,2.982e-07
3555.0,2.486e-07
3560.0,3.053e-07
3565.0,3.046e-07
3570.0,2.27e-07
3575.0,2.345e-07
3580.0,2.843e-07
3585.0,2.469e-07
3590.0,2.58e-07
3595.0,2.64e-07
3600.0,2.826e-07
3605.0,2.817e-07
3610.0,2.542e-07
3615.0,2.545e-07
3620.0,3.198e-07
3625.0,2.714e-07
3630.0,2.636e-07
3635.0,2.719e-07
3640.0,3.08e-07
3645.0,2.758e-07
3650.0,2.612e-07
3655.0,2.865e-07
3660.0,2.836e-07
3665.0,2.599e-07
3670.0,1.929e-07
3675.0,1.072e-07
3680.0,2.004e-07
3685.0,2.319e-07
3690.0,2.395e-07
3695.0,2.507e-07
3700.0,2.729e-07
3705.0,2.674e-07
3710.0,2.263e-07
3715.0,2.22e-07
3720.0,2.553e-07
3725.0,2.626e-07
3730.0,2.214e-07
3735.0,1.993e-07
3740.0,2.052e-07
3745.0,2.447e-07
3750.0,2.182e-07
3755.0,2.097e-07
3760.0,2.053e-07
3765.0,1.963e-07
3770.0,2.121e-07
3775.0,2.085e-07
3780.0,2.223e-07
3785.0,1.997e-07
3790.0,1.723e-07
3795.0,2.007e-07
3800.0,2.287e-07
3805.0,2.118e-07
3810.0,1.829e-07
3815.0,1.691e-07
3820.0,2.193e-07
3825.0,2.133e-07
3830.0,2.164e-07
3835.0,1.642e-07
3840.0,1.984e-07
3845.0,1.918e-07
3850.0,1.924e-07
3855.0,1.823e-07
3860.0,1.674e-07
3865.0,1.684e-07
3870.0,1.491e-07
3875.0,1.327e-07
3880.0,1.269e-07
3885.0,1.318e-07
3890.0,1.335e-07
3895.0,1.488e-07
3900.0,1.596e-07
3905.0,1.585e-07
3910.0,1.382e-07
3915.0,1.337e-07
3920.0,1.33e-07
3925.0,1.299e-07
3930.0,1.347e-07
3935.0,1.412e-07
3940.0,1.427e-07
3945.0,1.453e-07
3950.0,1.476e-07
3955.0,1.489e-07
3960.0,1.5e-07
3965.0,1.509e-07
3970.0,1.484e-07
3975.0,1.432e-07
3980.0,1.404e-07
3985.0,1.405e-07
3990.0,1.378e-07
3995.0,1.338e-07
4000.0,1.275e-07
