interpolation:linear
wavelength,value
280.0,1.907e-19
280.5,2.968e-18
281.0,1.2e-17
281.5,1.845e-16
282.0,9.403e-16
282.5,2.632e-15
283.0,8.225e-15
283.5,1.276e-14
284.0,1.54e-13
284.5,3.661e-13
285.0,8.435e-13
285.5,5.046e-12
286.0,2.098e-11
286.5,1.026e-10
287.0,3.154e-10
287.5,1.443e-09
288.0,2.661e-09
288.5,8.552e-09
289.0,2.312e-08
289.5,6.884e-08
290.0,1.842e-07
290.5,3.584e-07
291.0,7.294e-07
291.5,1.981e-06
292.0,3.668e-06
292.5,4.625e-06
293.0,8.746e-06
293.5,1.826e-05
294.0,2.472e-05
294.5,5.663e-05
295.0,9.221e-05
295.5,0.0001321
296.0,0.0002227
296.5,0.0002737
297.0,0.0003337
297.5,0.0007713
298.0,0.001074
298.5,0.0009826
299.0,0.001979
299.5,0.002828
300.0,0.002859
300.5,0.003808
301.0,0.006059
301.5,0.008616
302.0,0.006941
302.5,0.01203
303.0,0.01862
303.5,0.02143
304.0,0.01909
304.5,0.02513
305.0,0.03222
305.5,0.03322
306.0,0.03076
306.5,0.03577
307.0,0.04617
307.5,0.05389
308.0,0.05546
308.5,0.06133
309.0,0.05954
309.5,0.06112
310.0,0.05822
310.5,0.09156
311.0,0.1099
311.5,0.1037
312.0,0.09497
312.5,0.1088
313.0,0.1141
313.5,0.113
314.0,0.1317
314.5,0.1068
315.0,0.1374
315.5,0.1189
316.0,0.09656
316.5,0.1302
317.0,0.1609
317.5,0.1692
318.0,0.1263
318.5,0.1464
319.0,0.168
319.5,0.1424
320.0,0.1723
320.5,0.2026
321.0,0.1704
321.5,0.1617
322.0,0.1809
322.5,0.156
323.0,0.1491
323.5,0.1775
324.0,0.2049
324.5,0.2099
325.0,0.1823
325.5,0.2265
326.0,0.2751
326.5,0.2688
327.0,0.2683
327.5,0.26
328.0,0.2362
328.5,0.2394
329.0,0.2782
329.5,0.3118
330.0,0.3147
330.5,0.2552
331.0,0.2602
331.5,0.2594
332.0,0.2732
332.5,0.2664
333.0,0.2655
333.5,0.2425
334.0,0.2477
334.5,0.2796
335.0,0.2589
335.5,0.3149
336.0,0.2168
336.5,0.2421
337.0,0.1989
337.5,0.2467
338.0,0.2364
338.5,0.282
339.0,0.2755
339.5,0.2651
340.0,0.2987
340.5,0.2674
341.0,0.2685
341.5,0.242
342.0,0.2868
342.5,0.266
343.0,0.2932
343.5,0.2762
344.0,0.1973
344.5,0.2065
345.0,0.2672
345.5,0.2697
346.0,0.2272
346.5,0.2553
347.0,0.2743
347.5,0.2211
348.0,0.2489
348.5,0.2465
349.0,0.2271
349.5,0.2239
350.0,0.2753
350.5,0.2889
351.0,0.2575
351.5,0.2514
352.0,0.2669
352.5,0.2063
353.0,0.2578
353.5,0.2739
354.0,0.2825
354.5,0.285
355.0,0.2829
355.5,0.2541
356.0,0.2642
356.5,0.2244
357.0,0.1845
357.5,0.2246
358.0,0.177
358.5,0.1505
359.0,0.2095
359.5,0.2661
360.0,0.2805
360.5,0.2228
361.0,0.202
361.5,0.2313
362.0,0.1989
362.5,0.2739
363.0,0.2447
363.5,0.2243
364.0,0.2729
364.5,0.2321
365.0,0.2352
365.5,0.2937
366.0,0.3095
366.5,0.2893
367.0,0.2803
367.5,0.2895
368.0,0.2521
368.5,0.2531
369.0,0.272
369.5,0.2884
370.0,0.3059
370.5,0.2362
371.0,0.2512
371.5,0.3126
372.0,0.2065
372.5,0.2463
373.0,0.2494
373.5,0.1615
374.0,0.2335
374.5,0.1924
375.0,0.1861
375.5,0.2765
376.0,0.2281
376.5,0.2352
377.0,0.2478
377.5,0.2885
378.0,0.3112
378.5,0.2926
379.0,0.2402
379.5,0.2182
380.0,0.2257
380.5,0.272
381.0,0.2711
381.5,0.2138
382.0,0.1889
382.5,0.1602
383.0,0.1475
383.5,0.1414
384.0,0.1552
384.5,0.2272
385.0,0.2242
385.5,0.2078
386.0,0.1771
386.5,0.2315
387.0,0.1914
387.5,0.2139
388.0,0.1965
388.5,0.1933
389.0,0.2076
389.5,0.2502
390.0,0.2498
390.5,0.2288
391.0,0.268
391.5,0.272
392.0,0.2279
392.5,0.203
393.0,0.1124
393.5,0.08134
394.0,0.1647
394.5,0.2085
395.0,0.2532
395.5,0.256
396.0,0.2208
396.5,0.1285
397.0,0.09593
397.5,0.1941
398.0,0.2706
398.5,0.2784
399.0,0.3
399.5,0.2976
400.0,0.3076
401.0,0.302
402.0,0.3155
403.0,0.2969
404.0,0.2896
405.0,0.2869
406.0,0.2795
407.0,0.2724
408.0,0.2804
409.0,0.2974
410.0,0.2576
411.0,0.2765
412.0,0.2943
413.0,0.2844
414.0,0.2853
415.0,0.2834
416.0,0.2857
417.0,0.2761
418.0,0.2684
419.0,0.2694
420.0,0.2657
421.0,0.2754
422.0,0.2594
423.0,0.251
424.0,0.2631
425.0,0.2602
426.0,0.2512
427.0,0.2443
428.0,0.2359
429.0,0.2215
430.0,0.1922
431.0,0.1888
432.0,0.2415
433.0,0.2406
434.0,0.2214
435.0,0.2292
436.0,0.2562
437.0,0.2507
438.0,0.2265
439.0,0.2324
440.0,0.2378
441.0,0.2443
442.0,0.2597
443.0,0.2508
444.0,0.2541
445.0,0.2464
446.0,0.2331
447.0,0.2498
448.0,0.2515
449.0,0.2503
450.0,0.2551
451.0,0.2623
452.0,0.2505
453.0,0.2337
454.0,0.2419
455.0,0.2414
456.0,0.2451
457.0,0.2471
458.0,0.2368
459.0,0.2337
460.0,0.2325
461.0,0.236
462.0,0.2359
463.0,0.2325
464.0,0.2269
465.0,0.2221
466.0,0.2224
467.0,0.2165
468.0,0.2172
469.0,0.2164
470.0,0.208
471.0,0.2062
472.0,0.2155
473.0,0.211
474.0,0.2096
475.0,0.2098
476.0,0.202
477.0,0.201
478.0,0.205
479.0,0.2021
480.0,0.2011
481.0,0.203
482.0,0.2025
483.0,0.1984
484.0,0.1927
485.0,0.1821
486.0,0.1579
487.0,0.1641
488.0,0.1787
489.0,0.1778
490.0,0.1857
491.0,0.1812
492.0,0.1698
493.0,0.174
494.0,0.1744
495.0,0.1746
496.0,0.1744
497.0,0.1759
498.0,0.1665
499.0,0.1674
500.0,0.1614
501.0,0.1573
502.0,0.154
503.0,0.1591
504.0,0.154
505.0,0.1584
506.0,0.1624
507.0,0.1533
508.0,0.1474
509.0,0.1503
510.0,0.1485
511.0,0.1513
512.0,0.1518
513.0,0.1427
514.0,0.1407
515.0,0.1383
516.0,0.1371
517.0,0.121
518.0,0.1263
519.0,0.1315
520.0,0.1353
521.0,0.1357
522.0,0.1349
523.0,0.1316
524.0,0.1355
525.0,0.1363
526.0,0.1294
527.0,0.1211
528.0,0.1272
529.0,0.1333
530.0,0.1306
531.0,0.1317
532.0,0.1264
533.0,0.1219
534.0,0.1247
535.0,0.1265
536.0,0.1268
537.0,0.1209
538.0,0.1222
539.0,0.1204
540.0,0.1148
541.0,0.1148
542.0,0.1176
543.0,0.1156
544.0,0.117
545.0,0.116
546.0,0.1158
547.0,0.1149
548.0,0.1128
549.0,0.1124
550.0,0.113
551.0,0.1109
552.0,0.1109
553.0,0.1082
554.0,0.1101
555.0,0.1097
556.0,0.1075
557.0,0.1035
558.0,0.1021
559.0,0.09955
560.0,0.1002
561.0,0.1008
562.0,0.09947
563.0,0.1016
564.0,0.09822
565.0,0.09679
566.0,0.09476
567.0,0.09594
568.0,0.09451
569.0,0.09173
570.0,0.09116
571.0,0.09004
572.0,0.09163
573.0,0.09206
574.0,0.09125
575.0,0.08902
576.0,0.08762
577.0,0.08798
578.0,0.0861
579.0,0.08589
580.0,0.08695
581.0,0.0868
582.0,0.08783
583.0,0.08752
584.0,0.08778
585.0,0.08512
586.0,0.08278
587.0,0.08401
588.0,0.08152
589.0,0.07185
590.0,0.07471
591.0,0.0786
592.0,0.07716
593.0,0.07781
594.0,0.07682
595.0,0.07452
596.0,0.07701
597.0,0.07578
598.0,0.07513
599.0,0.07475
600.0,0.07443
601.0,0.07339
602.0,0.07247
603.0,0.07321
604.0,0.07395
605.0,0.07311
606.0,0.07237
607.0,0.07263
608.0,0.07135
609.0,0.071
610.0,0.07004
611.0,0.06998
612.0,0.06934
613.0,0.06802
614.0,0.06665
615.0,0.06768
616.0,0.06506
617.0,0.06454
618.0,0.06662
619.0,0.06557
620.0,0.06559
621.0,0.06528
622.0,0.06413
623.0,0.06276
624.0,0.0613
625.0,0.06084
626.0,0.06142
627.0,0.06175
628.0,0.05736
629.0,0.05956
630.0,0.05783
631.0,0.05875
632.0,0.05772
633.0,0.05916
634.0,0.05826
635.0,0.0588
636.0,0.05766
637.0,0.05826
638.0,0.05848
639.0,0.05749
640.0,0.05658
641.0,0.0562
642.0,0.05564
643.0,0.0561
644.0,0.05562
645.0,0.05537
646.0,0.05376
647.0,0.05284
648.0,0.05257
649.0,0.05126
650.0,0.05121
651.0,0.05312
652.0,0.0506
653.0,0.05183
654.0,0.05097
655.0,0.04878
656.0,0.04298
657.0,0.04392
658.0,0.04897
659.0,0.04906
660.0,0.04898
661.0,0.04904
662.0,0.0489
663.0,0.0477
664.0,0.048
665.0,0.04776
666.0,0.04753
667.0,0.04723
668.0,0.047
669.0,0.04746
670.0,0.04698
671.0,0.04673
672.0,0.04612
673.0,0.04662
674.0,0.04618
675.0,0.0455
676.0,0.04558
677.0,0.04491
678.0,0.04483
679.0,0.04388
680.0,0.044
681.0,0.04349
682.0,0.04321
683.0,0.04291
684.0,0.04246
685.0,0.04258
686.0,0.04212
687.0,0.02794
688.0,0.03254
689.0,0.03248
690.0,0.03386
691.0,0.03545
692.0,0.03656
693.0,0.03606
694.0,0.03551
695.0,0.03678
696.0,0.03662
697.0,0.03877
698.0,0.03798
699.0,0.03685
700.0,0.03621
701.0,0.03569
702.0,0.03578
703.0,0.03566
704.0,0.03662
705.0,0.03648
706.0,0.03628
707.0,0.03613
708.0,0.03603
709.0,0.03589
710.0,0.0357
711.0,0.03553
712.0,0.0353
713.0,0.03478
714.0,0.03471
715.0,0.03343
716.0,0.0333
717.0,0.02868
718.0,0.02605
719.0,0.02356
720.0,0.0247
721.0,0.02723
722.0,0.03124
723.0,0.02879
724.0,0.02566
725.0,0.02517
726.0,0.02634
727.0,0.02647
728.0,0.02477
729.0,0.02558
730.0,0.02706
731.0,0.0257
732.0,0.02742
733.0,0.02893
734.0,0.02947
735.0,0.02872
736.0,0.02856
737.0,0.02853
738.0,0.02884
739.0,0.02812
740.0,0.02872
741.0,0.0283
742.0,0.02818
743.0,0.02874
744.0,0.02851
745.0,0.02837
746.0,0.02837
747.0,0.0283
748.0,0.02809
749.0,0.02762
750.0,0.02747
751.0,0.02707
752.0,0.02705
753.0,0.02704
754.0,0.02696
755.0,0.02668
756.0,0.02655
757.0,0.02647
758.0,0.02601
759.0,0.02536
760.0,0.004212
761.0,0.0022
762.0,0.01278
763.0,0.006342
764.0,0.009493
765.0,0.01258
766.0,0.01538
767.0,0.01933
768.0,0.02221
769.0,0.02257
770.0,0.02324
771.0,0.02332
772.0,0.02326
773.0,0.0233
774.0,0.02307
775.0,0.0228
776.0,0.02298
777.0,0.02257
778.0,0.02232
779.0,0.02222
780.0,0.02199
781.0,0.02191
782.0,0.02194
783.0,0.02146
784.0,0.02146
785.0,0.0212
786.0,0.02133
787.0,0.02086
788.0,0.0205
789.0,0.02039
790.0,0.01974
791.0,0.01982
792.0,0.01958
793.0,0.01916
794.0,0.01941
795.0,0.01965
796.0,0.01894
797.0,0.01889
798.0,0.01937
799.0,0.01915
800.0,0.01872
801.0,0.01857
802.0,0.01844
803.0,0.01821
804.0,0.01815
805.0,0.01802
806.0,0.01844
807.0,0.01813
808.0,0.01807
809.0,0.01765
810.0,0.01742
811.0,0.01738
812.0,0.01679
813.0,0.01635
814.0,0.01423
815.0,0.01407
816.0,0.0129
817.0,0.0131
818.0,0.01256
819.0,0.01408
820.0,0.01315
821.0,0.01548
822.0,0.01493
823.0,0.009806
824.0,0.01435
825.0,0.01489
826.0,0.01421
827.0,0.015
828.0,0.01252
829.0,0.01394
830.0,0.01369
831.0,0.01369
832.0,0.01317
833.0,0.01408
834.0,0.0135
835.0,0.01482
836.0,0.0141
837.0,0.01473
838.0,0.01421
839.0,0.01438
840.0,0.01464
841.0,0.01436
842.0,0.01433
843.0,0.01426
844.0,0.014
845.0,0.01442
846.0,0.01429
847.0,0.01397
848.0,0.01382
849.0,0.01337
850.0,0.01275
851.0,0.01344
852.0,0.01329
853.0,0.01273
854.0,0.01094
855.0,0.01197
856.0,0.01303
857.0,0.01327
858.0,0.01312
859.0,0.01307
860.0,0.01304
861.0,0.01291
862.0,0.01306
863.0,0.01332
864.0,0.0126
865.0,0.01243
866.0,0.01113
867.0,0.01157
868.0,0.01254
869.0,0.01222
870.0,0.01252
871.0,0.0123
872.0,0.0122
873.0,0.01213
874.0,0.01193
875.0,0.01163
876.0,0.0117
877.0,0.01177
878.0,0.01185
879.0,0.01162
880.0,0.01132
881.0,0.01111
882.0,0.01131
883.0,0.0113
884.0,0.0112
885.0,0.01123
886.0,0.01066
887.0,0.01073
888.0,0.01084
889.0,0.01092
890.0,0.01078
891.0,0.01072
892.0,0.01037
893.0,0.009985
894.0,0.009574
895.0,0.008982
896.0,0.008341
897.0,0.007043
898.0,0.007721
899.0,0.005667
900.0,0.007862
901.0,0.006003
902.0,0.007074
903.0,0.007125
904.0,0.009117
905.0,0.00874
906.0,0.008105
907.0,0.006421
908.0,0.006555
909.0,0.007142
910.0,0.006227
911.0,0.006638
912.0,0.006942
913.0,0.006249
914.0,0.006156
915.0,0.006741
916.0,0.00554
917.0,0.007228
918.0,0.005676
919.0,0.007286
920.0,0.00731
921.0,0.007654
922.0,0.006754
923.0,0.007332
924.0,0.006894
925.0,0.006691
926.0,0.006768
927.0,0.007598
928.0,0.00542
929.0,0.004904
930.0,0.003739
931.0,0.003478
932.0,0.002417
933.0,0.00192
934.0,0.001006
935.0,0.001933
936.0,0.001152
937.0,0.001171
938.0,0.001467
939.0,0.003257
940.0,0.003999
941.0,0.002936
942.0,0.00342
943.0,0.002119
944.0,0.002211
945.0,0.00297
946.0,0.001392
947.0,0.002974
948.0,0.002071
949.0,0.0041
950.0,0.0009897
951.0,0.00399
952.0,0.001986
953.0,0.002625
954.0,0.003283
955.0,0.002656
956.0,0.002516
957.0,0.001966
958.0,0.003664
959.0,0.002844
960.0,0.003247
961.0,0.003655
962.0,0.003422
963.0,0.003994
964.0,0.003601
965.0,0.003941
966.0,0.003945
967.0,0.003906
968.0,0.005357
969.0,0.005633
970.0,0.005094
971.0,0.005892
972.0,0.005575
973.0,0.004786
974.0,0.004501
975.0,0.004646
976.0,0.004392
977.0,0.005038
978.0,0.00475
979.0,0.004984
980.0,0.004622
981.0,0.005635
982.0,0.005347
983.0,0.005096
984.0,0.005759
985.0,0.005271
986.0,0.005825
987.0,0.005685
988.0,0.005651
989.0,0.005747
990.0,0.005578
991.0,0.005717
992.0,0.005728
993.0,0.005575
994.0,0.005686
995.0,0.005659
996.0,0.00561
997.0,0.005596
998.0,0.005549
999.0,0.005509
1000.0,0.005448
1001.0,0.005499
1002.0,0.005319
1003.0,0.005359
1004.0,0.005205
1005.0,0.004998
1006.0,0.00517
1007.0,0.00526
1008.0,0.005211
1009.0,0.005163
1010.0,0.00512
1011.0,0.005156
1012.0,0.005089
1013.0,0.005106
1014.0,0.005052
1015.0,0.005
1016.0,0.004957
1017.0,0.00495
1018.0,0.004913
1019.0,0.004786
1020.0,0.004848
1021.0,0.004823
1022.0,0.004766
1023.0,0.004799
1024.0,0.004717
1025.0,0.004763
1026.0,0.004723
1027.0,0.004694
1028.0,0.004667
1029.0,0.004596
1030.0,0.004611
1031.0,0.004574
1032.0,0.004544
1033.0,0.004458
1034.0,0.004441
1035.0,0.004437
1036.0,0.004443
1037.0,0.004354
1038.0,0.004358
1039.0,0.00434
1040.0,0.004307
1041.0,0.004307
1042.0,0.004261
1043.0,0.004232
1044.0,0.004232
1045.0,0.004159
1046.0,0.004097
1047.0,0.004119
1048.0,0.004127
1049.0,0.004098
1050.0,0.004064
1051.0,0.004042
1052.0,0.004011
1053.0,0.003965
1054.0,0.00396
1055.0,0.003947
1056.0,0.003917
1057.0,0.003891
1058.0,0.003782
1059.0,0.003773
1060.0,0.003753
1061.0,0.003734
1062.0,0.003739
1063.0,0.00369
1064.0,0.003721
1065.0,0.003679
1066.0,0.003594
1067.0,0.003627
1068.0,0.003533
1069.0,0.003412
1070.0,0.003513
1071.0,0.003557
1072.0,0.003501
1073.0,0.00344
1074.0,0.00352
1075.0,0.003324
1076.0,0.003491
1077.0,0.00341
1078.0,0.003333
1079.0,0.003398
1080.0,0.003316
1081.0,0.003202
1082.0,0.003248
1083.0,0.003246
1084.0,0.003153
1085.0,0.00327
1086.0,0.002947
1087.0,0.003055
1088.0,0.003181
1089.0,0.003066
1090.0,0.002975
1091.0,0.003133
1092.0,0.003116
1093.0,0.0026
1094.0,0.002829
1095.0,0.002704
1096.0,0.002569
1097.0,0.002993
1098.0,0.002511
1099.0,0.002615
1100.0,0.0024
1101.0,0.002429
1102.0,0.002306
1103.0,0.002269
1104.0,0.002266
1105.0,0.002496
1106.0,0.001859
1107.0,0.002344
1108.0,0.001949
1109.0,0.00194
1110.0,0.002298
1111.0,0.001483
1112.0,0.001904
1113.0,0.001149
1114.0,0.001299
1115.0,0.001037
1116.0,0.0008145
1117.0,0.0002698
1118.0,0.0008844
1119.0,0.0004043
1120.0,0.0005267
1121.0,0.0007202
1122.0,0.0002723
1123.0,0.0004616
1124.0,0.0003779
1125.0,0.0005128
1126.0,0.0001598
1127.0,0.0005836
1128.0,0.0003319
1129.0,0.0003526
1130.0,0.0002221
1131.0,0.001188
1132.0,0.0008945
1133.0,0.0005403
1134.0,0.0001187
1135.0,3.941e-05
1136.0,0.0004368
1137.0,0.001148
1138.0,0.0007609
1139.0,0.001175
1140.0,0.0009638
1141.0,0.0007092
1142.0,0.000825
1143.0,0.001231
1144.0,0.0003724
1145.0,0.0004963
1146.0,0.0005404
1147.0,0.0001696
1148.0,0.001018
1149.0,0.0007893
1150.0,0.0003975
1151.0,0.0007215
1152.0,0.000907
1153.0,0.0008639
1154.0,0.000469
1155.0,0.001173
1156.0,0.00104
1157.0,0.001179
1158.0,0.001159
1159.0,0.001258
1160.0,0.001054
1161.0,0.001326
1162.0,0.001324
1163.0,0.001841
1164.0,0.001548
1165.0,0.001453
1166.0,0.001428
1167.0,0.001565
1168.0,0.001583
1169.0,0.001623
1170.0,0.001766
1171.0,0.001708
1172.0,0.001732
1173.0,0.001742
1174.0,0.0012
1175.0,0.001688
1176.0,0.001857
1177.0,0.001775
1178.0,0.001288
1179.0,0.001854
1180.0,0.001632
1181.0,0.001689
1182.0,0.001113
1183.0,0.001655
1184.0,0.001528
1185.0,0.001466
1186.0,0.00176
1187.0,0.001665
1188.0,0.001121
1189.0,0.001533
1190.0,0.001693
1191.0,0.0016
1192.0,0.001708
1193.0,0.001624
1194.0,0.001675
1195.0,0.001578
1196.0,0.001511
1197.0,0.001667
1198.0,0.001507
1199.0,0.001267
1200.0,0.001575
1201.0,0.001511
1202.0,0.001494
1203.0,0.001487
1204.0,0.001272
1205.0,0.001518
1206.0,0.001691
1207.0,0.001475
1208.0,0.00145
1209.0,0.001473
1210.0,0.001535
1211.0,0.001453
1212.0,0.001435
1213.0,0.001601
1214.0,0.001462
1215.0,0.001427
1216.0,0.00158
1217.0,0.001531
1218.0,0.001557
1219.0,0.001533
1220.0,0.001549
1221.0,0.00156
1222.0,0.001511
1223.0,0.001492
1224.0,0.001479
1225.0,0.001531
1226.0,0.001536
1227.0,0.001408
1228.0,0.001534
1229.0,0.001522
1230.0,0.00149
1231.0,0.001529
1232.0,0.001515
1233.0,0.001457
1234.0,0.001513
1235.0,0.001499
1236.0,0.001505
1237.0,0.001479
1238.0,0.00149
1239.0,0.001466
1240.0,0.001467
1241.0,0.001455
1242.0,0.001447
1243.0,0.00143
1244.0,0.001435
1245.0,0.001437
1246.0,0.001424
1247.0,0.001414
1248.0,0.001408
1249.0,0.001408
1250.0,0.001395
1251.0,0.001372
1252.0,0.001369
1253.0,0.001353
1254.0,0.001335
1255.0,0.001354
1256.0,0.001311
1257.0,0.0013
1258.0,0.00132
1259.0,0.001267
1260.0,0.00127
1261.0,0.001194
1262.0,0.001154
1263.0,0.001153
1264.0,0.00106
1265.0,0.00114
1266.0,0.001092
1267.0,0.001109
1268.0,0.001047
1269.0,0.0006399
1270.0,0.001096
1271.0,0.001159
1272.0,0.001159
1273.0,0.001143
1274.0,0.001143
1275.0,0.001157
1276.0,0.001165
1277.0,0.001168
1278.0,0.001188
1279.0,0.001173
1280.0,0.001154
1281.0,0.001098
1282.0,0.001055
1283.0,0.001133
1284.0,0.001156
1285.0,0.00116
1286.0,0.001173
1287.0,0.00115
1288.0,0.001146
1289.0,0.001106
1290.0,0.001129
1291.0,0.001141
1292.0,0.001066
1293.0,0.001111
1294.0,0.001099
1295.0,0.001091
1296.0,0.001036
1297.0,0.0009743
1298.0,0.001049
1299.0,0.001091
1300.0,0.0009117
1301.0,0.0009394
1302.0,0.001034
1303.0,0.0008901
1304.0,0.000751
1305.0,0.001001
1306.0,0.0009989
1307.0,0.0007569
1308.0,0.0008742
1309.0,0.0009826
1310.0,0.0007343
1311.0,0.0008287
1312.0,0.0008067
1313.0,0.0007866
1314.0,0.0006913
1315.0,0.0006867
1316.0,0.0008057
1317.0,0.0007537
1318.0,0.0008239
1319.0,0.0006305
1320.0,0.0006009
1321.0,0.0007132
1322.0,0.000722
1323.0,0.0005275
1324.0,0.0006068
1325.0,0.0007708
1326.0,0.0006511
1327.0,0.0006157
1328.0,0.0005196
1329.0,0.0003807
1330.0,0.0005123
1331.0,0.0002936
1332.0,0.0002998
1333.0,0.000438
1334.0,0.000353
1335.0,0.0005068
1336.0,0.0003884
1337.0,0.0003394
1338.0,0.0003707
1339.0,0.000367
1340.0,0.0003498
1341.0,0.0003464
1342.0,0.0003657
1343.0,0.0002443
1344.0,0.000133
1345.0,0.0002015
1346.0,9.629e-05
1347.0,9.897e-05
1348.0,5.251e-06
1349.0,2.104e-05
1350.0,2.099e-05
1351.0,4.924e-06
1352.0,1.292e-06
1353.0,5.776e-08
1354.0,2.038e-07
1355.0,1.483e-09
1356.0,2.709e-08
1357.0,4.196e-08
1358.0,1.743e-09
1359.0,2.19e-10
1360.0,7.92e-10
1361.0,8.468e-13
1362.0,2.275e-15
1363.0,1.088e-09
1364.0,4.411e-10
1365.0,7.963e-16
1366.0,4.943e-09
1367.0,1.921e-09
1368.0,6.143e-18
1369.0,1.59e-10
1370.0,7.852e-11
1371.0,4.328e-12
1372.0,1.021e-09
1373.0,2.2e-08
1374.0,1.061e-07
1375.0,2.003e-07
1376.0,1.7e-07
1377.0,7.503e-08
1378.0,8.393e-07
1379.0,3.019e-08
1380.0,4.525e-08
1381.0,1.072e-09
1382.0,8.979e-10
1383.0,1.271e-11
1384.0,1.739e-10
1385.0,8.208e-10
1386.0,8.031e-10
1387.0,1.097e-07
1388.0,1.829e-09
1389.0,3.8e-07
1390.0,3.196e-07
1391.0,2.106e-07
1392.0,1.2e-08
1393.0,6.669e-08
1394.0,3.604e-08
1395.0,2.306e-10
1396.0,1.099e-12
1397.0,2.558e-08
1398.0,8.992e-07
1399.0,5.448e-07
1400.0,4.711e-13
1401.0,1.953e-12
1402.0,1.486e-06
1403.0,1.941e-06
1404.0,5.351e-07
1405.0,1.091e-10
1406.0,1.55e-06
1407.0,1.143e-07
1408.0,1.227e-06
1409.0,3.929e-07
1410.0,3.025e-07
1411.0,1.638e-06
1412.0,2.202e-06
1413.0,2.647e-05
1414.0,2.313e-07
1415.0,1.08e-07
1416.0,4.338e-05
1417.0,1.202e-05
1418.0,1.375e-05
1419.0,1.801e-06
1420.0,7.917e-06
1421.0,8.768e-06
1422.0,5.738e-05
1423.0,9.284e-06
1424.0,1.839e-05
1425.0,2.855e-05
1426.0,3.215e-05
1427.0,6.175e-05
1428.0,3.855e-06
1429.0,4.498e-05
1430.0,8.009e-05
1431.0,8.822e-05
1432.0,2.936e-06
1433.0,5.309e-05
1434.0,2.502e-05
1435.0,2.579e-05
1436.0,5.26e-05
1437.0,3.881e-05
1438.0,1.505e-05
1439.0,7.325e-05
1440.0,5.296e-05
1441.0,3.938e-05
1442.0,4.383e-05
1443.0,5.527e-05
1444.0,8e-05
1445.0,6.096e-05
1446.0,2.469e-05
1447.0,4.152e-05
1448.0,0.0001591
1449.0,0.0001364
1450.0,2.936e-05
1451.0,1.074e-05
1452.0,7.622e-05
1453.0,0.0001033
1454.0,0.0001894
1455.0,8.034e-05
1456.0,0.0001136
1457.0,0.0001565
1458.0,0.000186
1459.0,0.0002267
1460.0,0.0001071
1461.0,0.0001131
1462.0,0.0001748
1463.0,4.854e-05
1464.0,0.0002097
1465.0,0.0001163
1466.0,7.755e-05
1467.0,3.795e-05
1468.0,9.296e-05
1469.0,0.0001175
1470.0,5.391e-05
1471.0,1.729e-05
1472.0,5.108e-05
1473.0,8.137e-05
1474.0,0.0001227
1475.0,0.0002529
1476.0,7.981e-05
1477.0,8.079e-05
1478.0,7.29e-05
1479.0,0.000153
1480.0,6.76e-05
1481.0,0.0001448
1482.0,6.499e-05
1483.0,0.0001949
1484.0,0.0001776
1485.0,0.0001564
1486.0,0.0001537
1487.0,6.459e-05
1488.0,0.0001202
1489.0,0.0002553
1490.0,0.000231
1491.0,0.0002642
1492.0,0.0002154
1493.0,0.0002392
1494.0,0.0002714
1495.0,0.000237
1496.0,0.0002201
1497.0,0.0003099
1498.0,0.0002475
1499.0,0.0002947
1500.0,0.0003417
1501.0,0.0003619
1502.0,0.0002992
1503.0,0.000251
1504.0,0.0001966
1505.0,0.0002405
1506.0,0.0003565
1507.0,0.0003412
1508.0,0.0003223
1509.0,0.0002403
1510.0,0.0003667
1511.0,0.0003538
1512.0,0.0003488
1513.0,0.0003188
1514.0,0.0002957
1515.0,0.0003562
1516.0,0.0003391
1517.0,0.000331
1518.0,0.0003287
1519.0,0.0003208
1520.0,0.0003458
1521.0,0.0003678
1522.0,0.000349
1523.0,0.0003714
1524.0,0.00036
1525.0,0.0003429
1526.0,0.0003474
1527.0,0.0003431
1528.0,0.000365
1529.0,0.0003461
1530.0,0.0003392
1531.0,0.0003477
1532.0,0.0003604
1533.0,0.0003594
1534.0,0.0003524
1535.0,0.0003499
1536.0,0.0003555
1537.0,0.000347
1538.0,0.0003495
1539.0,0.0003429
1540.0,0.000343
1541.0,0.0003446
1542.0,0.0003402
1543.0,0.0003453
1544.0,0.0003405
1545.0,0.000346
1546.0,0.0003401
1547.0,0.0003344
1548.0,0.0003336
1549.0,0.0003357
1550.0,0.0003327
1551.0,0.0003344
1552.0,0.0003311
1553.0,0.0003281
1554.0,0.0003245
1555.0,0.0003245
1556.0,0.0003235
1557.0,0.0003265
1558.0,0.0003239
1559.0,0.0003212
1560.0,0.0003227
1561.0,0.0003242
1562.0,0.0003195
1563.0,0.0003162
1564.0,0.000317
1565.0,0.0003168
1566.0,0.0003119
1567.0,0.0003118
1568.0,0.000308
1569.0,0.0003092
1570.0,0.0003114
1571.0,0.0003133
1572.0,0.0003108
1573.0,0.0003081
1574.0,0.0002966
1575.0,0.0002924
1576.0,0.0002874
1577.0,0.0002794
1578.0,0.0002928
1579.0,0.000295
1580.0,0.0002969
1581.0,0.0002918
1582.0,0.0002853
1583.0,0.000286
1584.0,0.0002903
1585.0,0.0002928
1586.0,0.0002888
1587.0,0.0002834
1588.0,0.0002746
1589.0,0.0002655
1590.0,0.0002709
1591.0,0.000277
1592.0,0.0002846
1593.0,0.0002883
1594.0,0.0002872
1595.0,0.0002827
1596.0,0.0002738
1597.0,0.0002803
1598.0,0.0002834
1599.0,0.0002796
1600.0,0.0002771
1601.0,0.0002726
1602.0,0.0002728
1603.0,0.0002747
1604.0,0.0002719
1605.0,0.0002711
1606.0,0.0002673
1607.0,0.000269
1608.0,0.0002683
1609.0,0.0002605
1610.0,0.0002545
1611.0,0.0002584
1612.0,0.0002608
1613.0,0.0002607
1614.0,0.00026
1615.0,0.0002536
1616.0,0.0002491
1617.0,0.0002535
1618.0,0.0002572
1619.0,0.0002519
1620.0,0.0002459
1621.0,0.0002481
1622.0,0.0002514
1623.0,0.0002544
1624.0,0.0002509
1625.0,0.0002493
1626.0,0.0002493
1627.0,0.0002506
1628.0,0.0002493
1629.0,0.0002465
1630.0,0.0002445
1631.0,0.0002426
1632.0,0.0002414
1633.0,0.0002337
1634.0,0.0002382
1635.0,0.0002346
1636.0,0.0002319
1637.0,0.0002287
1638.0,0.0002152
1639.0,0.0002227
1640.0,0.0002131
1641.0,0.0002201
1642.0,0.0002238
1643.0,0.0002114
1644.0,0.0002226
1645.0,0.0002162
1646.0,0.0002109
1647.0,0.0002245
1648.0,0.0002091
1649.0,0.0002182
1650.0,0.0002192
1651.0,0.0002035
1652.0,0.0002161
1653.0,0.0002175
1654.0,0.0002058
1655.0,0.0002164
1656.0,0.0002125
1657.0,0.0002134
1658.0,0.0002154
1659.0,0.0002133
1660.0,0.0002146
1661.0,0.0002129
1662.0,0.0002067
1663.0,0.0002107
1664.0,0.0002083
1665.0,0.0001966
1666.0,0.0001611
1667.0,0.0001936
1668.0,0.0001999
1669.0,0.0002008
1670.0,0.0002037
1671.0,0.0001974
1672.0,0.0001944
1673.0,0.0001984
1674.0,0.0001938
1675.0,0.0001902
1676.0,0.000191
1677.0,0.0001903
1678.0,0.0001845
1679.0,0.0001876
1680.0,0.0001796
1681.0,0.0001738
1682.0,0.0001829
1683.0,0.0001863
1684.0,0.0001728
1685.0,0.0001875
1686.0,0.0001865
1687.0,0.0001792
1688.0,0.0001845
1689.0,0.000182
1690.0,0.0001811
1691.0,0.0001649
1692.0,0.0001795
1693.0,0.000184
1694.0,0.0001768
1695.0,0.0001812
1696.0,0.0001806
1697.0,0.0001518
1698.0,0.0001781
1699.0,0.0001753
1700.0,0.0001702
1702.0,0.0001724
1705.0,0.000166
1710.0,0.0001553
1715.0,0.0001536
1720.0,0.0001501
1725.0,0.0001386
1730.0,0.0001353
1735.0,0.0001247
1740.0,0.0001252
1745.0,0.0001155
1750.0,0.0001232
1755.0,0.0001113
1760.0,0.0001158
1765.0,9.201e-05
1770.0,9.869e-05
1775.0,7.693e-05
1780.0,6.437e-05
1785.0,4.676e-05
1790.0,5.478e-05
1795.0,2.555e-05
1800.0,1.637e-05
1805.0,6.415e-06
1810.0,3.964e-06
1815.0,1.129e-06
1820.0,2.653e-07
1825.0,3.532e-07
1830.0,7.309e-10
1835.0,1.081e-09
1840.0,6.104e-12
1845.0,7.269e-10
1850.0,3.194e-10
1855.0,2.862e-11
1860.0,1.706e-09
1865.0,2.455e-09
1870.0,1.215e-14
1875.0,2.199e-14
1880.0,1.32e-08
1885.0,6.91e-09
1890.0,4.072e-08
1895.0,2.263e-08
1900.0,8.746e-11
1905.0,5.9e-11
1910.0,3.063e-09
1915.0,2.893e-09
1920.0,8.468e-08
1925.0,1.993e-07
1930.0,1.123e-07
1935.0,9.251e-07
1940.0,8.855e-07
1945.0,3.956e-06
1950.0,8.006e-06
1955.0,7.231e-06
1960.0,1.297e-05
1965.0,1.942e-05
1970.0,2.784e-05
1975.0,3.172e-05
1980.0,3.165e-05
1985.0,3.403e-05
1990.0,3.504e-05
1995.0,3.681e-05
2000.0,3.854e-05
2005.0,3.192e-05
2010.0,4.599e-05
2015.0,3.556e-05
2020.0,3.779e-05
2025.0,4.072e-05
2030.0,3.694e-05
2035.0,3.984e-05
2040.0,3.756e-05
2045.0,3.837e-05
2050.0,3.85e-05
2055.0,3.654e-05
2060.0,3.497e-05
2065.0,3.524e-05
2070.0,3.446e-05
2075.0,3.488e-05
2080.0,3.365e-05
2085.0,3.314e-05
2090.0,3.319e-05
2095.0,3.188e-05
2100.0,2.946e-05
2105.0,3.16e-05
2110.0,3.005e-05
2115.0,3.05e-05
2120.0,2.84e-05
2125.0,2.858e-05
2130.0,2.869e-05
2135.0,2.866e-05
2140.0,2.863e-05
2145.0,2.808e-05
2150.0,2.609e-05
2155.0,2.586e-05
2160.0,2.534e-05
2165.0,2.286e-05
2170.0,2.416e-05
2175.0,2.339e-05
2180.0,2.38e-05
2185.0,2.106e-05
2190.0,2.257e-05
2195.0,2.217e-05
2200.0,1.934e-05
2205.0,2.017e-05
2210.0,2.169e-05
2215.0,2.053e-05
2220.0,2.079e-05
2225.0,1.994e-05
2230.0,1.985e-05
2235.0,1.915e-05
2240.0,1.873e-05
2245.0,1.779e-05
2250.0,1.792e-05
2255.0,1.652e-05
2260.0,1.604e-05
2265.0,1.627e-05
2270.0,1.513e-05
2275.0,1.476e-05
2280.0,1.533e-05
2285.0,1.421e-05
2290.0,1.408e-05
2295.0,1.358e-05
2300.0,1.275e-05
2305.0,1.273e-05
2310.0,1.389e-05
2315.0,1.229e-05
2320.0,1.062e-05
2325.0,1.18e-05
2330.0,1.173e-05
2335.0,1.192e-05
2340.0,9.009e-06
2345.0,1.019e-05
2350.0,7.849e-06
2355.0,9.195e-06
2360.0,9.716e-06
2365.0,9.468e-06
2370.0,5.334e-06
2375.0,8.184e-06
2380.0,7.716e-06
2385.0,5.344e-06
2390.0,6.384e-06
2395.0,7.054e-06
2400.0,7.716e-06
2405.0,5.634e-06
2410.0,5.612e-06
2415.0,4.378e-06
2420.0,4.165e-06
2425.0,5.313e-06
2430.0,7.413e-06
2435.0,2.083e-06
2440.0,7.017e-06
2445.0,2.982e-06
2450.0,1.821e-06
2455.0,3.605e-06
2460.0,4.954e-06
2465.0,3.378e-06
2470.0,2.189e-06
2475.0,2.122e-06
2480.0,9.467e-07
2485.0,6.099e-07
2490.0,3.46e-07
2495.0,2.953e-07
2500.0,7.709e-07
2505.0,1.42e-07
2510.0,2.141e-07
2515.0,4.294e-08
2520.0,2.543e-08
2525.0,2.614e-09
2530.0,1.804e-11
2535.0,3.967e-12
2540.0,9.461e-12
2545.0,6.95e-16
2550.0,2.807e-18
2555.0,1.37e-14
2560.0,4.054e-16
2565.0,9.050000000000001e-20
2570.0,2.694e-24
2575.0,1.703e-34
2580.0,1.7760000000000001e-28
2585.0,3.712e-42
2590.0,2.317e-38
2595.0,4.506e-40
2600.0,3.71e-35
2605.0,4.1e-42
2610.0,1.4119999999999998e-41
2615.0,1.4009999999999999e-45
2620.0,1.244e-35
2625.0,2.277e-35
2630.0,0.0
2635.0,1.187e-21
2640.0,2.569e-22
2645.0,1.119e-24
2650.0,1.115e-25
2655.0,1.34e-34
2660.0,1.129e-31
2665.0,0.0
2670.0,0.0
2675.0,0.0
2680.0,2.2890000000000002e-30
2685.0,2.1860000000000003e-31
2690.0,8.179000000000001e-31
2695.0,3.209e-33
2700.0,9.346e-29
2705.0,2.6520000000000003e-26
2710.0,2.11e-31
2715.0,2.665e-29
2720.0,0.0
2725.0,5.967e-27
2730.0,1.742e-24
2735.0,1.9840000000000002e-26
2740.0,3.584e-32
2745.0,4.6209999999999996e-27
2750.0,2.59e-26
2755.0,4.167000000000001e-28
2760.0,6.243e-23
2765.0,2.93e-29
2770.0,1.4400000000000002e-26
2775.0,1.777e-23
2780.0,8.275000000000001e-21
2785.0,3.1080000000000005e-20
2790.0,7.092e-18
2795.0,1.561e-18
2800.0,4.983e-15
2805.0,9.304e-17
2810.0,3.745e-13
2815.0,1.115e-13
2820.0,1.36e-15
2825.0,1.204e-11
2830.0,2.627e-10
2835.0,3.576e-15
2840.0,7.678e-12
2845.0,2.684e-09
2850.0,4.608e-11
2855.0,1.834e-11
2860.0,9.606e-10
2865.0,7.12e-09
2870.0,1.792e-10
2875.0,1.734e-08
2880.0,1.087e-08
2885.0,1.799e-08
2890.0,7.599e-09
2895.0,1.309e-07
2900.0,3.624e-08
2905.0,4.175e-09
2910.0,1.333e-07
2915.0,5.641e-08
2920.0,1.404e-07
2925.0,4.978e-08
2930.0,3.041e-07
2935.0,3.357e-07
2940.0,7.463e-08
2945.0,6.407e-08
2950.0,2.602e-07
2955.0,1.151e-07
2960.0,2.297e-07
2965.0,3.897e-07
2970.0,1.505e-08
2975.0,3.828e-08
2980.0,5.979e-08
2985.0,3.543e-07
2990.0,5.381e-07
2995.0,2.033e-07
3000.0,3.879e-07
3005.0,1.314e-07
3010.0,3.395e-07
3015.0,2.633e-07
3020.0,2.357e-08
3025.0,3.633e-07
3030.0,2.862e-07
3035.0,1.081e-07
3040.0,8.455e-08
3045.0,1.826e-07
3050.0,4.1e-08
3055.0,9.996e-09
3060.0,2.854e-07
3065.0,1.204e-07
3070.0,6.752e-08
3075.0,2.666e-07
3080.0,1.542e-07
3085.0,6.801e-08
3090.0,9.282e-08
3095.0,2.263e-08
3100.0,1.862e-07
3105.0,3.448e-08
3110.0,2.897e-08
3115.0,8.746e-08
3120.0,4.356e-07
3125.0,1.26e-07
3130.0,2.519e-07
3135.0,5.12e-07
3140.0,1.34e-07
3145.0,1.313e-07
3150.0,2.806e-07
3155.0,2.354e-07
3160.0,3.945e-07
3165.0,6.231e-07
3170.0,5.518e-07
3175.0,3.867e-07
3180.0,4.565e-07
3185.0,3.205e-07
3190.0,1.653e-07
3195.0,9.23e-08
3200.0,1.275e-08
3205.0,8.332e-09
3210.0,3.448e-09
3215.0,1.42e-08
3220.0,5.047e-08
3225.0,5.649e-09
3230.0,9.463e-09
3235.0,2.762e-07
3240.0,1.248e-07
3245.0,2.296e-08
3250.0,8.638e-08
3255.0,3.804e-07
3260.0,3.674e-08
3265.0,8.03e-08
3270.0,3.751e-08
3275.0,2.316e-07
3280.0,9.723e-08
3285.0,4.331e-07
3290.0,3.252e-07
3295.0,3.847e-08
3300.0,5.74e-08
3305.0,1.345e-07
3310.0,1.282e-07
3315.0,1.788e-10
3320.0,1.119e-09
3325.0,1.079e-07
3330.0,1.622e-07
3335.0,3.209e-07
3340.0,1.152e-07
3345.0,1.122e-07
3350.0,2.827e-07
3355.0,1.133e-07
3360.0,1.738e-07
3365.0,2.453e-07
3370.0,1.181e-07
3375.0,2.876e-07
3380.0,1.553e-07
3385.0,2.461e-07
3390.0,3.245e-07
3395.0,3.134e-07
3400.0,4.231e-07
3405.0,1.28e-07
3410.0,2.251e-07
3415.0,2.194e-07
3420.0,4.382e-07
3425.0,3.137e-07
3430.0,2.646e-07
3435.0,3.769e-07
3440.0,2.415e-07
3445.0,3.601e-07
3450.0,3.519e-07
3455.0,2.504e-07
3460.0,4.004e-07
3465.0,2.969e-07
3470.0,3.876e-07
3475.0,3.368e-07
3480.0,3.449e-07
3485.0,3.754e-07
3490.0,3.135e-07
3495.0,3.772e-07
3500.0,3.646e-07
3505.0,3.59e-07
3510.0,3.636e-07
3515.0,3.479e-07
3520.0,3.717e-07
3525.0,3.465e-07
3530.0,3.361e-07
3535.0,2.754e-07
3540.0,2.609e-07
3545.0,2.767e-07
3550.0,3.12e-07
3555.0,2.617e-07
3560.0,3.197e-07
3565.0,3.189e-07
3570.0,2.396e-07
3575.0,2.481e-07
3580.0,2.986e-07
3585.0,2.606e-07
3590.0,2.718e-07
3595.0,2.774e-07
3600.0,2.965e-07
3605.0,2.962e-07
3610.0,2.679e-07
3615.0,2.678e-07
3620.0,3.342e-07
3625.0,2.856e-07
3630.0,2.773e-07
3635.0,2.859e-07
3640.0,3.222e-07
3645.0,2.898e-07
3650.0,2.75e-07
3655.0,3.003e-07
3660.0,2.973e-07
3665.0,2.738e-07
3670.0,2.049e-07
3675.0,1.155e-07
3680.0,2.13e-07
3685.0,2.455e-07
3690.0,2.532e-07
3695.0,2.641e-07
3700.0,2.862e-07
3705.0,2.806e-07
3710.0,2.393e-07
3715.0,2.348e-07
3720.0,2.687e-07
3725.0,2.76e-07
3730.0,2.341e-07
3735.0,2.115e-07
3740.0,2.175e-07
3745.0,2.575e-07
3750.0,2.306e-07
3755.0,2.219e-07
3760.0,2.179e-07
3765.0,2.085e-07
3770.0,2.243e-07
3775.0,2.209e-07
3780.0,2.35e-07
3785.0,2.123e-07
3790.0,1.839e-07
3795.0,2.129e-07
3800.0,2.414e-07
3805.0,2.244e-07
3810.0,1.953e-07
3815.0,1.808e-07
3820.0,2.32e-07
3825.0,2.258e-07
3830.0,2.289e-07
3835.0,1.762e-07
3840.0,2.107e-07
3845.0,2.043e-07
3850.0,2.049e-07
3855.0,1.947e-07
3860.0,1.797e-07
3865.0,1.806e-07
3870.0,1.611e-07
3875.0,1.443e-07
3880.0,1.384e-07
3885.0,1.432e-07
3890.0,1.451e-07
3895.0,1.606e-07
3900.0,1.713e-07
3905.0,1.701e-07
3910.0,1.497e-07
3915.0,1.45e-07
3920.0,1.441e-07
3925.0,1.409e-07
3930.0,1.458e-07
3935.0,1.524e-07
3940.0,1.539e-07
3945.0,1.564e-07
3950.0,1.586e-07
3955.0,1.599e-07
3960.0,1.607e-07
3965.0,1.616e-07
3970.0,1.59e-07
3975.0,1.539e-07
3980.0,1.509e-07
3985.0,1.509e-07
3990.0,1.484e-07
3995.0,1.443e-07
4000.0,1.376e-07
