interpolation:linear
wavelength,value
280.0,4.174e-20
280.5,1.178e-18
281.0,6.005e-18
281.5,4.473e-19
282.0,1.937e-18
282.5,5.478e-18
283.0,1.824e-17
283.5,3.008e-17
284.0,4.733e-16
284.5,1.333e-15
285.0,2.464e-15
285.5,1.493e-14
286.0,6.33e-14
286.5,3.018e-13
287.0,8.874e-13
287.5,3.457e-12
288.0,9.672e-12
288.5,3.765e-11
289.0,1.24e-10
289.5,4.549e-10
290.0,1.457e-09
290.5,3.324e-09
291.0,8.085e-09
291.5,2.685e-08
292.0,7.177e-08
292.5,1.12e-07
293.0,2.762e-07
293.5,8.226e-07
294.0,1.504e-06
294.5,1.654e-06
295.0,3.286e-06
295.5,7.494e-06
296.0,1.416e-05
296.5,1.944e-05
297.0,2.592e-05
297.5,6.837e-05
298.0,0.0001064
298.5,0.0001062
299.0,0.0002324
299.5,0.0003836
300.0,0.0004207
300.5,0.0006084
301.0,0.001104
301.5,0.001766
302.0,0.001512
302.5,0.002813
303.0,0.004747
303.5,0.005746
304.0,0.005271
304.5,0.007453
305.0,0.01052
305.5,0.01152
306.0,0.01092
306.5,0.01319
307.0,0.01844
307.5,0.02319
308.0,0.02419
308.5,0.02774
309.0,0.02801
309.5,0.03027
310.0,0.02957
310.5,0.04714
311.0,0.05781
311.5,0.05511
312.0,0.05278
312.5,0.06237
313.0,0.06649
313.5,0.06501
314.0,0.07864
314.5,0.06696
315.0,0.08703
315.5,0.07369
316.0,0.06228
316.5,0.08699
317.0,0.1075
317.5,0.1121
318.0,0.08574
318.5,0.103
319.0,0.1201
319.5,0.09959
320.0,0.1202
320.5,0.1457
321.0,0.1261
321.5,0.1201
322.0,0.1307
322.5,0.113
323.0,0.1102
323.5,0.1352
324.0,0.1568
324.5,0.1594
325.0,0.1358
325.5,0.1717
326.0,0.2121
326.5,0.21
327.0,0.2089
327.5,0.2015
328.0,0.1804
328.5,0.1866
329.0,0.2205
329.5,0.2486
330.0,0.2502
330.5,0.2006
331.0,0.2039
331.5,0.2053
332.0,0.2194
332.5,0.2156
333.0,0.2143
333.5,0.1939
334.0,0.198
334.5,0.2263
335.0,0.2111
335.5,0.2521
336.0,0.1737
336.5,0.1974
337.0,0.1615
337.5,0.2002
338.0,0.1939
338.5,0.2276
339.0,0.2231
339.5,0.2145
340.0,0.246
340.5,0.2207
341.0,0.2181
341.5,0.1975
342.0,0.2345
342.5,0.218
343.0,0.2399
343.5,0.2258
344.0,0.1639
344.5,0.1686
345.0,0.2194
345.5,0.2221
346.0,0.1874
346.5,0.211
347.0,0.2264
347.5,0.1826
348.0,0.2061
348.5,0.2046
349.0,0.1888
349.5,0.1862
350.0,0.2292
350.5,0.2407
351.0,0.2145
351.5,0.209
352.0,0.2225
352.5,0.1723
353.0,0.2158
353.5,0.2295
354.0,0.237
354.5,0.2393
355.0,0.2376
355.5,0.2136
356.0,0.2224
356.5,0.1891
357.0,0.1555
357.5,0.1895
358.0,0.1495
358.5,0.1272
359.0,0.1771
359.5,0.225
360.0,0.2374
360.5,0.1888
361.0,0.1713
361.5,0.1963
362.0,0.169
362.5,0.2329
363.0,0.2082
363.5,0.191
364.0,0.2326
364.5,0.1979
365.0,0.2007
365.5,0.2508
366.0,0.2645
366.5,0.2475
367.0,0.2399
367.5,0.2479
368.0,0.216
368.5,0.2171
369.0,0.2334
369.5,0.2477
370.0,0.2629
370.5,0.2031
371.0,0.2161
371.5,0.2692
372.0,0.1779
372.5,0.2124
373.0,0.2151
373.5,0.1394
374.0,0.2016
374.5,0.1663
375.0,0.1609
375.5,0.2392
376.0,0.1974
376.5,0.2037
377.0,0.2148
377.5,0.2502
378.0,0.27
378.5,0.2541
379.0,0.2087
379.5,0.1898
380.0,0.1964
380.5,0.2368
381.0,0.2362
381.5,0.1864
382.0,0.1648
382.5,0.1398
383.0,0.1289
383.5,0.1236
384.0,0.1357
384.5,0.1988
385.0,0.1963
385.5,0.182
386.0,0.1552
386.5,0.203
387.0,0.1679
387.5,0.1877
388.0,0.1726
388.5,0.1698
389.0,0.1825
389.5,0.2201
390.0,0.2199
390.5,0.2015
391.0,0.2361
391.5,0.2398
392.0,0.2011
392.5,0.1792
393.0,0.09928
393.5,0.07186
394.0,0.1456
394.5,0.1844
395.0,0.224
395.5,0.2266
396.0,0.1956
396.5,0.1138
397.0,0.08505
397.5,0.1722
398.0,0.2401
398.5,0.2471
399.0,0.2665
399.5,0.2645
400.0,0.2735
401.0,0.2685
402.0,0.2808
403.0,0.2644
404.0,0.2582
405.0,0.2559
406.0,0.2496
407.0,0.2434
408.0,0.2507
409.0,0.2662
410.0,0.2307
411.0,0.2478
412.0,0.2639
413.0,0.2552
414.0,0.2562
415.0,0.2547
416.0,0.2569
417.0,0.2485
418.0,0.2418
419.0,0.2428
420.0,0.2397
421.0,0.2486
422.0,0.2342
423.0,0.2268
424.0,0.2378
425.0,0.2353
426.0,0.2274
427.0,0.2213
428.0,0.2138
429.0,0.2009
430.0,0.1744
431.0,0.1713
432.0,0.2193
433.0,0.2186
434.0,0.2013
435.0,0.2085
436.0,0.2331
437.0,0.2282
438.0,0.2062
439.0,0.2116
440.0,0.2166
441.0,0.2225
442.0,0.2366
443.0,0.2286
444.0,0.2317
445.0,0.2249
446.0,0.2129
447.0,0.2283
448.0,0.2299
449.0,0.2288
450.0,0.2333
451.0,0.2399
452.0,0.2293
453.0,0.214
454.0,0.2216
455.0,0.2212
456.0,0.2245
457.0,0.2264
458.0,0.2169
459.0,0.214
460.0,0.2128
461.0,0.216
462.0,0.216
463.0,0.213
464.0,0.208
465.0,0.2038
466.0,0.2042
467.0,0.1988
468.0,0.1994
469.0,0.1987
470.0,0.1909
471.0,0.1893
472.0,0.198
473.0,0.1938
474.0,0.1926
475.0,0.1927
476.0,0.1854
477.0,0.1844
478.0,0.188
479.0,0.1852
480.0,0.1841
481.0,0.1859
482.0,0.1854
483.0,0.1817
484.0,0.1766
485.0,0.167
486.0,0.1449
487.0,0.1507
488.0,0.1641
489.0,0.1633
490.0,0.1705
491.0,0.1663
492.0,0.1558
493.0,0.1597
494.0,0.1601
495.0,0.1603
496.0,0.1601
497.0,0.1613
498.0,0.1526
499.0,0.1533
500.0,0.1476
501.0,0.1437
502.0,0.1406
503.0,0.1451
504.0,0.1403
505.0,0.1443
506.0,0.1479
507.0,0.1397
508.0,0.1343
509.0,0.1372
510.0,0.1355
511.0,0.1382
512.0,0.1386
513.0,0.1302
514.0,0.1284
515.0,0.1262
516.0,0.125
517.0,0.1103
518.0,0.1151
519.0,0.1199
520.0,0.1233
521.0,0.1235
522.0,0.1228
523.0,0.1197
524.0,0.1231
525.0,0.1237
526.0,0.1173
527.0,0.1097
528.0,0.1151
529.0,0.1205
530.0,0.118
531.0,0.1189
532.0,0.1141
533.0,0.11
534.0,0.1125
535.0,0.1142
536.0,0.1144
537.0,0.1091
538.0,0.1103
539.0,0.1087
540.0,0.1035
541.0,0.1035
542.0,0.106
543.0,0.1041
544.0,0.1053
545.0,0.1044
546.0,0.1041
547.0,0.1033
548.0,0.1014
549.0,0.101
550.0,0.1016
551.0,0.09965
552.0,0.09965
553.0,0.0972
554.0,0.09887
555.0,0.09842
556.0,0.09646
557.0,0.09279
558.0,0.09143
559.0,0.08908
560.0,0.08956
561.0,0.09007
562.0,0.08878
563.0,0.09057
564.0,0.08753
565.0,0.0862
566.0,0.08435
567.0,0.08536
568.0,0.08402
569.0,0.08145
570.0,0.08092
571.0,0.0799
572.0,0.08125
573.0,0.08161
574.0,0.08087
575.0,0.07888
576.0,0.07767
577.0,0.07802
578.0,0.0764
579.0,0.07626
580.0,0.07727
581.0,0.0772
582.0,0.07818
583.0,0.07794
584.0,0.07821
585.0,0.07585
586.0,0.07379
587.0,0.07488
588.0,0.07259
589.0,0.06384
590.0,0.06638
591.0,0.06989
592.0,0.06854
593.0,0.06913
594.0,0.06819
595.0,0.06606
596.0,0.06832
597.0,0.06716
598.0,0.06657
599.0,0.0662
600.0,0.06591
601.0,0.065
602.0,0.06418
603.0,0.06485
604.0,0.06553
605.0,0.06482
606.0,0.0642
607.0,0.06448
608.0,0.0634
609.0,0.06314
610.0,0.06235
611.0,0.06235
612.0,0.06183
613.0,0.0607
614.0,0.05954
615.0,0.0605
616.0,0.0582
617.0,0.05777
618.0,0.05967
619.0,0.05876
620.0,0.0588
621.0,0.05854
622.0,0.05752
623.0,0.05631
624.0,0.05503
625.0,0.05463
626.0,0.05516
627.0,0.05546
628.0,0.0513
629.0,0.05346
630.0,0.05193
631.0,0.05286
632.0,0.05197
633.0,0.05332
634.0,0.05256
635.0,0.05309
636.0,0.0521
637.0,0.05268
638.0,0.05293
639.0,0.05206
640.0,0.05128
641.0,0.05097
642.0,0.0505
643.0,0.05094
644.0,0.05053
645.0,0.05032
646.0,0.04885
647.0,0.04797
648.0,0.04772
649.0,0.04656
650.0,0.0466
651.0,0.04837
652.0,0.04601
653.0,0.04723
654.0,0.04647
655.0,0.04445
656.0,0.03921
657.0,0.04008
658.0,0.04473
659.0,0.04484
660.0,0.04478
661.0,0.04486
662.0,0.04472
663.0,0.04364
664.0,0.04395
665.0,0.04377
666.0,0.04358
667.0,0.04333
668.0,0.04314
669.0,0.04358
670.0,0.04316
671.0,0.04294
672.0,0.0424
673.0,0.04287
674.0,0.04249
675.0,0.04188
676.0,0.04196
677.0,0.04136
678.0,0.04129
679.0,0.04043
680.0,0.04055
681.0,0.04009
682.0,0.03984
683.0,0.03956
684.0,0.03915
685.0,0.03928
686.0,0.03886
687.0,0.02499
688.0,0.02946
689.0,0.02942
690.0,0.03081
691.0,0.0324
692.0,0.03354
693.0,0.03307
694.0,0.03257
695.0,0.03384
696.0,0.0337
697.0,0.03583
698.0,0.0351
699.0,0.03397
700.0,0.03339
701.0,0.03289
702.0,0.033
703.0,0.03289
704.0,0.03383
705.0,0.03371
706.0,0.03354
707.0,0.03342
708.0,0.03332
709.0,0.03323
710.0,0.03304
711.0,0.0329
712.0,0.0327
713.0,0.03219
714.0,0.03213
715.0,0.03092
716.0,0.03079
717.0,0.02624
718.0,0.02378
719.0,0.02149
720.0,0.02252
721.0,0.02498
722.0,0.02887
723.0,0.0265
724.0,0.02352
725.0,0.02302
726.0,0.02412
727.0,0.02431
728.0,0.02266
729.0,0.0235
730.0,0.02487
731.0,0.02358
732.0,0.02526
733.0,0.02676
734.0,0.02729
735.0,0.02658
736.0,0.02644
737.0,0.02641
738.0,0.02675
739.0,0.02609
740.0,0.02666
741.0,0.02628
742.0,0.02619
743.0,0.02671
744.0,0.0265
745.0,0.02638
746.0,0.02638
747.0,0.02631
748.0,0.02612
749.0,0.02569
750.0,0.02555
751.0,0.02518
752.0,0.02517
753.0,0.02517
754.0,0.0251
755.0,0.02484
756.0,0.02472
757.0,0.02464
758.0,0.02422
759.0,0.02358
760.0,0.003484
761.0,0.001776
762.0,0.01128
763.0,0.005356
764.0,0.008215
765.0,0.01111
766.0,0.01383
767.0,0.01766
768.0,0.02053
769.0,0.02093
770.0,0.02161
771.0,0.02171
772.0,0.02166
773.0,0.0217
774.0,0.02148
775.0,0.02123
776.0,0.02139
777.0,0.02101
778.0,0.02077
779.0,0.02068
780.0,0.02047
781.0,0.02039
782.0,0.02043
783.0,0.01998
784.0,0.01999
785.0,0.01975
786.0,0.01987
787.0,0.01941
788.0,0.01907
789.0,0.01896
790.0,0.01832
791.0,0.01843
792.0,0.01821
793.0,0.01782
794.0,0.01809
795.0,0.0183
796.0,0.0176
797.0,0.01755
798.0,0.01804
799.0,0.01783
800.0,0.01742
801.0,0.01727
802.0,0.01714
803.0,0.01693
804.0,0.01688
805.0,0.01676
806.0,0.01718
807.0,0.01688
808.0,0.01683
809.0,0.01642
810.0,0.01619
811.0,0.01613
812.0,0.01554
813.0,0.01511
814.0,0.01305
815.0,0.0129
816.0,0.01183
817.0,0.01202
818.0,0.0115
819.0,0.01298
820.0,0.01209
821.0,0.01435
822.0,0.01382
823.0,0.008919
824.0,0.01325
825.0,0.0138
826.0,0.01315
827.0,0.01392
828.0,0.01152
829.0,0.01291
830.0,0.01266
831.0,0.01266
832.0,0.01217
833.0,0.01306
834.0,0.01249
835.0,0.01379
836.0,0.01306
837.0,0.01371
838.0,0.0132
839.0,0.01339
840.0,0.01363
841.0,0.01336
842.0,0.01335
843.0,0.0133
844.0,0.01304
845.0,0.01344
846.0,0.01333
847.0,0.01303
848.0,0.01288
849.0,0.01246
850.0,0.01188
851.0,0.01252
852.0,0.01237
853.0,0.01186
854.0,0.01019
855.0,0.01116
856.0,0.01214
857.0,0.01237
858.0,0.01223
859.0,0.01219
860.0,0.01215
861.0,0.01203
862.0,0.01218
863.0,0.01242
864.0,0.01175
865.0,0.0116
866.0,0.01039
867.0,0.01079
868.0,0.0117
869.0,0.01141
870.0,0.01168
871.0,0.01147
872.0,0.01139
873.0,0.01132
874.0,0.01113
875.0,0.01086
876.0,0.01092
877.0,0.01098
878.0,0.01106
879.0,0.01084
880.0,0.01056
881.0,0.01036
882.0,0.01054
883.0,0.01054
884.0,0.01044
885.0,0.01047
886.0,0.009927
887.0,0.01
888.0,0.0101
889.0,0.01019
890.0,0.01004
891.0,0.009991
892.0,0.009649
893.0,0.009274
894.0,0.008861
895.0,0.008274
896.0,0.007668
897.0,0.00643
898.0,0.007075
899.0,0.005149
900.0,0.007234
901.0,0.005446
902.0,0.006495
903.0,0.006514
904.0,0.008437
905.0,0.008072
906.0,0.007473
907.0,0.00586
908.0,0.005986
909.0,0.006554
910.0,0.005657
911.0,0.006062
912.0,0.006356
913.0,0.005673
914.0,0.005599
915.0,0.006134
916.0,0.005032
917.0,0.006617
918.0,0.00515
919.0,0.006686
920.0,0.006739
921.0,0.007063
922.0,0.006188
923.0,0.006766
924.0,0.006314
925.0,0.006127
926.0,0.006197
927.0,0.006999
928.0,0.004883
929.0,0.004392
930.0,0.003317
931.0,0.003102
932.0,0.002133
933.0,0.001682
934.0,0.0008617
935.0,0.001713
936.0,0.001011
937.0,0.001022
938.0,0.00128
939.0,0.002905
940.0,0.003581
941.0,0.002599
942.0,0.00305
943.0,0.001882
944.0,0.001987
945.0,0.002636
946.0,0.001224
947.0,0.002627
948.0,0.00184
949.0,0.003645
950.0,0.0008557
951.0,0.003557
952.0,0.001742
953.0,0.002322
954.0,0.002933
955.0,0.00235
956.0,0.002246
957.0,0.001716
958.0,0.003318
959.0,0.002539
960.0,0.00289
961.0,0.003283
962.0,0.003071
963.0,0.003607
964.0,0.003246
965.0,0.003566
966.0,0.003558
967.0,0.003521
968.0,0.004931
969.0,0.005175
970.0,0.004665
971.0,0.005445
972.0,0.005144
973.0,0.004367
974.0,0.0041
975.0,0.004254
976.0,0.003996
977.0,0.004629
978.0,0.004344
979.0,0.004574
980.0,0.004233
981.0,0.005209
982.0,0.004925
983.0,0.004684
984.0,0.005344
985.0,0.004855
986.0,0.005417
987.0,0.005274
988.0,0.005241
989.0,0.005351
990.0,0.005175
991.0,0.00532
992.0,0.005332
993.0,0.005177
994.0,0.005294
995.0,0.005271
996.0,0.005223
997.0,0.005212
998.0,0.005168
999.0,0.005131
1000.0,0.005071
1001.0,0.005121
1002.0,0.004941
1003.0,0.004991
1004.0,0.004844
1005.0,0.004656
1006.0,0.004814
1007.0,0.004899
1008.0,0.004851
1009.0,0.004803
1010.0,0.004763
1011.0,0.004802
1012.0,0.004738
1013.0,0.004756
1014.0,0.004706
1015.0,0.004657
1016.0,0.004617
1017.0,0.00461
1018.0,0.004577
1019.0,0.004454
1020.0,0.004516
1021.0,0.004493
1022.0,0.004438
1023.0,0.004469
1024.0,0.004387
1025.0,0.004436
1026.0,0.004398
1027.0,0.004371
1028.0,0.004346
1029.0,0.004279
1030.0,0.004295
1031.0,0.00426
1032.0,0.004232
1033.0,0.004151
1034.0,0.004136
1035.0,0.004133
1036.0,0.004137
1037.0,0.004055
1038.0,0.004058
1039.0,0.004041
1040.0,0.00401
1041.0,0.00401
1042.0,0.003967
1043.0,0.00394
1044.0,0.003939
1045.0,0.003871
1046.0,0.003813
1047.0,0.003833
1048.0,0.00384
1049.0,0.003812
1050.0,0.00378
1051.0,0.00376
1052.0,0.00373
1053.0,0.003687
1054.0,0.003682
1055.0,0.003669
1056.0,0.003642
1057.0,0.003616
1058.0,0.003514
1059.0,0.003505
1060.0,0.003486
1061.0,0.003468
1062.0,0.003473
1063.0,0.003426
1064.0,0.003455
1065.0,0.003415
1066.0,0.003337
1067.0,0.003367
1068.0,0.003279
1069.0,0.003167
1070.0,0.003261
1071.0,0.003305
1072.0,0.00325
1073.0,0.003194
1074.0,0.003272
1075.0,0.00308
1076.0,0.003244
1077.0,0.003164
1078.0,0.00309
1079.0,0.003159
1080.0,0.003076
1081.0,0.002965
1082.0,0.003016
1083.0,0.003016
1084.0,0.002917
1085.0,0.003034
1086.0,0.002719
1087.0,0.00283
1088.0,0.002955
1089.0,0.002838
1090.0,0.002748
1091.0,0.002908
1092.0,0.002894
1093.0,0.002388
1094.0,0.002624
1095.0,0.002488
1096.0,0.002355
1097.0,0.00278
1098.0,0.0023
1099.0,0.002399
1100.0,0.002191
1101.0,0.00222
1102.0,0.002101
1103.0,0.002063
1104.0,0.002061
1105.0,0.002288
1106.0,0.001666
1107.0,0.00214
1108.0,0.001757
1109.0,0.001754
1110.0,0.002096
1111.0,0.001328
1112.0,0.001723
1113.0,0.001016
1114.0,0.00115
1115.0,0.0009236
1116.0,0.0007113
1117.0,0.0002297
1118.0,0.0007782
1119.0,0.0003512
1120.0,0.0004531
1121.0,0.000622
1122.0,0.0002341
1123.0,0.0003995
1124.0,0.0003295
1125.0,0.0004442
1126.0,0.0001365
1127.0,0.0005043
1128.0,0.0002817
1129.0,0.0003004
1130.0,0.0001879
1131.0,0.001038
1132.0,0.000781
1133.0,0.0004631
1134.0,0.0001013
1135.0,3.549e-05
1136.0,0.0003726
1137.0,0.000998
1138.0,0.0006647
1139.0,0.00105
1140.0,0.0008509
1141.0,0.0006207
1142.0,0.000726
1143.0,0.001086
1144.0,0.0003254
1145.0,0.0004267
1146.0,0.0004628
1147.0,0.0001434
1148.0,0.000902
1149.0,0.0006935
1150.0,0.0003459
1151.0,0.00063
1152.0,0.0007983
1153.0,0.0007712
1154.0,0.0003995
1155.0,0.001046
1156.0,0.0009232
1157.0,0.001052
1158.0,0.001035
1159.0,0.001131
1160.0,0.0009385
1161.0,0.001195
1162.0,0.001193
1163.0,0.001688
1164.0,0.001408
1165.0,0.001311
1166.0,0.001296
1167.0,0.001426
1168.0,0.00144
1169.0,0.00148
1170.0,0.001619
1171.0,0.001565
1172.0,0.001592
1173.0,0.001598
1174.0,0.001079
1175.0,0.001551
1176.0,0.00172
1177.0,0.001635
1178.0,0.00117
1179.0,0.001717
1180.0,0.001499
1181.0,0.001552
1182.0,0.001007
1183.0,0.001524
1184.0,0.001401
1185.0,0.001339
1186.0,0.001626
1187.0,0.001532
1188.0,0.001013
1189.0,0.001409
1190.0,0.001564
1191.0,0.001468
1192.0,0.001578
1193.0,0.001498
1194.0,0.001547
1195.0,0.00145
1196.0,0.001385
1197.0,0.001544
1198.0,0.00139
1199.0,0.001154
1200.0,0.001451
1201.0,0.001388
1202.0,0.001374
1203.0,0.001368
1204.0,0.001162
1205.0,0.001401
1206.0,0.001569
1207.0,0.001354
1208.0,0.001336
1209.0,0.001359
1210.0,0.00142
1211.0,0.001337
1212.0,0.001315
1213.0,0.001482
1214.0,0.001343
1215.0,0.001309
1216.0,0.001463
1217.0,0.001414
1218.0,0.001441
1219.0,0.001417
1220.0,0.001433
1221.0,0.001446
1222.0,0.001399
1223.0,0.00138
1224.0,0.001366
1225.0,0.001418
1226.0,0.001425
1227.0,0.001299
1228.0,0.001425
1229.0,0.001412
1230.0,0.001381
1231.0,0.001422
1232.0,0.001409
1233.0,0.001349
1234.0,0.001408
1235.0,0.001394
1236.0,0.0014
1237.0,0.001374
1238.0,0.001386
1239.0,0.001364
1240.0,0.001365
1241.0,0.001353
1242.0,0.001347
1243.0,0.001331
1244.0,0.001335
1245.0,0.001337
1246.0,0.001325
1247.0,0.001315
1248.0,0.001309
1249.0,0.00131
1250.0,0.001297
1251.0,0.001276
1252.0,0.001273
1253.0,0.001257
1254.0,0.001238
1255.0,0.001259
1256.0,0.001216
1257.0,0.001205
1258.0,0.001226
1259.0,0.001172
1260.0,0.001176
1261.0,0.001099
1262.0,0.001059
1263.0,0.001058
1264.0,0.0009649
1265.0,0.001045
1266.0,0.0009978
1267.0,0.001016
1268.0,0.0009546
1269.0,0.0005565
1270.0,0.001003
1271.0,0.001067
1272.0,0.001068
1273.0,0.001052
1274.0,0.001053
1275.0,0.001067
1276.0,0.001075
1277.0,0.00108
1278.0,0.0011
1279.0,0.001087
1280.0,0.001069
1281.0,0.001019
1282.0,0.0009806
1283.0,0.001052
1284.0,0.001074
1285.0,0.001078
1286.0,0.00109
1287.0,0.001067
1288.0,0.001064
1289.0,0.001023
1290.0,0.001048
1291.0,0.00106
1292.0,0.000984
1293.0,0.00103
1294.0,0.001019
1295.0,0.00101
1296.0,0.0009554
1297.0,0.0008947
1298.0,0.0009703
1299.0,0.001013
1300.0,0.0008347
1301.0,0.0008625
1302.0,0.0009564
1303.0,0.0008163
1304.0,0.0006788
1305.0,0.0009246
1306.0,0.0009224
1307.0,0.0006878
1308.0,0.0008038
1309.0,0.0009067
1310.0,0.0006671
1311.0,0.0007597
1312.0,0.0007375
1313.0,0.0007178
1314.0,0.0006282
1315.0,0.0006212
1316.0,0.0007367
1317.0,0.0006887
1318.0,0.0007565
1319.0,0.000568
1320.0,0.0005448
1321.0,0.0006489
1322.0,0.000655
1323.0,0.0004711
1324.0,0.000547
1325.0,0.0007046
1326.0,0.0005895
1327.0,0.0005564
1328.0,0.0004678
1329.0,0.0003374
1330.0,0.0004548
1331.0,0.0002552
1332.0,0.0002636
1333.0,0.0003838
1334.0,0.0003141
1335.0,0.000453
1336.0,0.0003448
1337.0,0.0002988
1338.0,0.0003265
1339.0,0.0003242
1340.0,0.0003118
1341.0,0.0003038
1342.0,0.0003205
1343.0,0.0002065
1344.0,0.0001151
1345.0,0.0001733
1346.0,7.986e-05
1347.0,8.122e-05
1348.0,4.422e-06
1349.0,1.689e-05
1350.0,1.747e-05
1351.0,3.981e-06
1352.0,1.037e-06
1353.0,5.077e-08
1354.0,1.762e-07
1355.0,1.389e-09
1356.0,2.448e-08
1357.0,3.729e-08
1358.0,1.631e-09
1359.0,2.051e-10
1360.0,7.418e-10
1361.0,8.277e-13
1362.0,2.264e-15
1363.0,9.98e-10
1364.0,4.116e-10
1365.0,7.903e-16
1366.0,4.338e-09
1367.0,1.766e-09
1368.0,6.102e-18
1369.0,1.515e-10
1370.0,7.46e-11
1371.0,4.225e-12
1372.0,9.57e-10
1373.0,1.943e-08
1374.0,9.095e-08
1375.0,1.661e-07
1376.0,1.484e-07
1377.0,6.731e-08
1378.0,6.782e-07
1379.0,2.797e-08
1380.0,4.031e-08
1381.0,1.039e-09
1382.0,8.386e-10
1383.0,1.251e-11
1384.0,1.642e-10
1385.0,7.857e-10
1386.0,7.393e-10
1387.0,9.11e-08
1388.0,1.759e-09
1389.0,3.114e-07
1390.0,2.667e-07
1391.0,1.764e-07
1392.0,1.122e-08
1393.0,5.991e-08
1394.0,3.083e-08
1395.0,2.232e-10
1396.0,1.077e-12
1397.0,2.347e-08
1398.0,7.206e-07
1399.0,4.515e-07
1400.0,4.606e-13
1401.0,1.911e-12
1402.0,1.269e-06
1403.0,1.603e-06
1404.0,4.741e-07
1405.0,1.056e-10
1406.0,1.254e-06
1407.0,1.061e-07
1408.0,1.014e-06
1409.0,3.319e-07
1410.0,2.643e-07
1411.0,1.372e-06
1412.0,1.861e-06
1413.0,2.144e-05
1414.0,2.057e-07
1415.0,9.755e-08
1416.0,3.638e-05
1417.0,9.99e-06
1418.0,1.141e-05
1419.0,1.631e-06
1420.0,6.756e-06
1421.0,7.321e-06
1422.0,4.784e-05
1423.0,8.209e-06
1424.0,1.593e-05
1425.0,2.395e-05
1426.0,2.754e-05
1427.0,5.359e-05
1428.0,3.269e-06
1429.0,3.863e-05
1430.0,6.951e-05
1431.0,7.701e-05
1432.0,2.518e-06
1433.0,4.632e-05
1434.0,2.214e-05
1435.0,2.163e-05
1436.0,4.461e-05
1437.0,3.332e-05
1438.0,1.302e-05
1439.0,6.231e-05
1440.0,4.54e-05
1441.0,3.325e-05
1442.0,3.717e-05
1443.0,4.805e-05
1444.0,6.895e-05
1445.0,5.186e-05
1446.0,2.159e-05
1447.0,3.525e-05
1448.0,0.0001398
1449.0,0.0001184
1450.0,2.536e-05
1451.0,9.459e-06
1452.0,6.612e-05
1453.0,8.96e-05
1454.0,0.0001675
1455.0,7.085e-05
1456.0,9.779e-05
1457.0,0.0001373
1458.0,0.0001666
1459.0,0.0002011
1460.0,9.508e-05
1461.0,9.875e-05
1462.0,0.0001535
1463.0,4.266e-05
1464.0,0.0001867
1465.0,0.0001048
1466.0,6.715e-05
1467.0,3.253e-05
1468.0,8.081e-05
1469.0,0.0001024
1470.0,4.617e-05
1471.0,1.514e-05
1472.0,4.374e-05
1473.0,7.064e-05
1474.0,0.0001087
1475.0,0.0002266
1476.0,7.001e-05
1477.0,7.019e-05
1478.0,6.475e-05
1479.0,0.0001357
1480.0,5.914e-05
1481.0,0.0001281
1482.0,5.757e-05
1483.0,0.0001727
1484.0,0.0001593
1485.0,0.0001388
1486.0,0.0001359
1487.0,5.598e-05
1488.0,0.0001064
1489.0,0.0002298
1490.0,0.0002089
1491.0,0.0002414
1492.0,0.0001923
1493.0,0.0002148
1494.0,0.0002463
1495.0,0.0002146
1496.0,0.0001988
1497.0,0.0002859
1498.0,0.0002253
1499.0,0.0002694
1500.0,0.0003158
1501.0,0.0003345
1502.0,0.0002758
1503.0,0.0002286
1504.0,0.0001773
1505.0,0.0002188
1506.0,0.0003308
1507.0,0.0003155
1508.0,0.0002982
1509.0,0.0002183
1510.0,0.0003409
1511.0,0.0003278
1512.0,0.000324
1513.0,0.0002935
1514.0,0.000271
1515.0,0.0003313
1516.0,0.0003147
1517.0,0.0003061
1518.0,0.0003042
1519.0,0.0002961
1520.0,0.0003211
1521.0,0.000344
1522.0,0.0003248
1523.0,0.0003475
1524.0,0.0003359
1525.0,0.0003187
1526.0,0.0003231
1527.0,0.0003192
1528.0,0.0003415
1529.0,0.0003229
1530.0,0.0003161
1531.0,0.0003243
1532.0,0.0003375
1533.0,0.0003368
1534.0,0.00033
1535.0,0.0003272
1536.0,0.0003329
1537.0,0.0003246
1538.0,0.0003275
1539.0,0.0003211
1540.0,0.0003215
1541.0,0.0003229
1542.0,0.0003185
1543.0,0.0003235
1544.0,0.0003188
1545.0,0.0003244
1546.0,0.0003185
1547.0,0.0003134
1548.0,0.0003127
1549.0,0.0003148
1550.0,0.0003118
1551.0,0.0003133
1552.0,0.00031
1553.0,0.0003075
1554.0,0.0003041
1555.0,0.0003042
1556.0,0.0003032
1557.0,0.0003061
1558.0,0.0003036
1559.0,0.000301
1560.0,0.0003024
1561.0,0.0003039
1562.0,0.0002993
1563.0,0.0002963
1564.0,0.0002969
1565.0,0.0002968
1566.0,0.0002922
1567.0,0.0002921
1568.0,0.0002885
1569.0,0.0002898
1570.0,0.0002918
1571.0,0.0002935
1572.0,0.0002911
1573.0,0.0002885
1574.0,0.0002776
1575.0,0.0002737
1576.0,0.0002688
1577.0,0.0002613
1578.0,0.0002737
1579.0,0.0002756
1580.0,0.0002774
1581.0,0.0002727
1582.0,0.0002666
1583.0,0.0002672
1584.0,0.0002715
1585.0,0.0002739
1586.0,0.0002701
1587.0,0.0002651
1588.0,0.000257
1589.0,0.0002485
1590.0,0.0002535
1591.0,0.0002592
1592.0,0.0002662
1593.0,0.0002698
1594.0,0.0002686
1595.0,0.0002645
1596.0,0.0002562
1597.0,0.0002621
1598.0,0.0002651
1599.0,0.0002616
1600.0,0.0002593
1601.0,0.000255
1602.0,0.0002551
1603.0,0.0002571
1604.0,0.0002544
1605.0,0.0002537
1606.0,0.0002502
1607.0,0.0002518
1608.0,0.000251
1609.0,0.0002437
1610.0,0.0002381
1611.0,0.0002418
1612.0,0.000244
1613.0,0.0002438
1614.0,0.0002433
1615.0,0.0002373
1616.0,0.0002331
1617.0,0.0002371
1618.0,0.0002406
1619.0,0.0002355
1620.0,0.00023
1621.0,0.0002321
1622.0,0.0002352
1623.0,0.000238
1624.0,0.0002346
1625.0,0.0002331
1626.0,0.0002331
1627.0,0.0002344
1628.0,0.0002331
1629.0,0.0002305
1630.0,0.0002286
1631.0,0.0002267
1632.0,0.0002256
1633.0,0.0002182
1634.0,0.0002227
1635.0,0.0002189
1636.0,0.0002167
1637.0,0.0002138
1638.0,0.0002005
1639.0,0.0002082
1640.0,0.0001984
1641.0,0.0002056
1642.0,0.0002093
1643.0,0.0001966
1644.0,0.0002082
1645.0,0.0002016
1646.0,0.000196
1647.0,0.00021
1648.0,0.0001944
1649.0,0.0002038
1650.0,0.0002049
1651.0,0.0001888
1652.0,0.0002018
1653.0,0.0002032
1654.0,0.0001914
1655.0,0.0002022
1656.0,0.0001982
1657.0,0.0001993
1658.0,0.0002014
1659.0,0.0001994
1660.0,0.0002006
1661.0,0.000199
1662.0,0.0001928
1663.0,0.0001971
1664.0,0.0001947
1665.0,0.0001829
1666.0,0.0001472
1667.0,0.0001802
1668.0,0.0001869
1669.0,0.0001876
1670.0,0.0001905
1671.0,0.0001845
1672.0,0.0001819
1673.0,0.0001857
1674.0,0.000181
1675.0,0.0001778
1676.0,0.0001786
1677.0,0.0001778
1678.0,0.000172
1679.0,0.0001756
1680.0,0.000168
1681.0,0.0001623
1682.0,0.0001712
1683.0,0.0001744
1684.0,0.0001603
1685.0,0.0001755
1686.0,0.0001746
1687.0,0.0001672
1688.0,0.0001727
1689.0,0.0001703
1690.0,0.0001693
1691.0,0.0001529
1692.0,0.0001676
1693.0,0.0001723
1694.0,0.000165
1695.0,0.0001695
1696.0,0.0001691
1697.0,0.00014
1698.0,0.0001667
1699.0,0.0001639
1700.0,0.0001589
1702.0,0.0001613
1705.0,0.0001549
1710.0,0.0001446
1715.0,0.0001431
1720.0,0.00014
1725.0,0.0001286
1730.0,0.0001257
1735.0,0.0001158
1740.0,0.0001162
1745.0,0.000107
1750.0,0.0001143
1755.0,0.000103
1760.0,0.0001072
1765.0,8.46e-05
1770.0,9.056e-05
1775.0,6.988e-05
1780.0,5.812e-05
1785.0,4.17e-05
1790.0,4.887e-05
1795.0,2.201e-05
1800.0,1.449e-05
1805.0,5.407e-06
1810.0,3.399e-06
1815.0,9.369e-07
1820.0,2.249e-07
1825.0,2.956e-07
1830.0,6.794e-10
1835.0,1.029e-09
1840.0,5.976e-12
1845.0,6.425e-10
1850.0,2.895e-10
1855.0,2.758e-11
1860.0,1.59e-09
1865.0,2.219e-09
1870.0,1.204e-14
1875.0,2.175e-14
1880.0,1.178e-08
1885.0,6.25e-09
1890.0,3.479e-08
1895.0,2.004e-08
1900.0,8.41e-11
1905.0,5.727e-11
1910.0,2.793e-09
1915.0,2.718e-09
1920.0,7.318e-08
1925.0,1.74e-07
1930.0,9.953e-08
1935.0,7.964e-07
1940.0,7.875e-07
1945.0,3.48e-06
1950.0,7.068e-06
1955.0,6.289e-06
1960.0,1.158e-05
1965.0,1.748e-05
1970.0,2.539e-05
1975.0,2.905e-05
1980.0,2.908e-05
1985.0,3.138e-05
1990.0,3.232e-05
1995.0,3.411e-05
2000.0,3.581e-05
2005.0,2.941e-05
2010.0,4.324e-05
2015.0,3.295e-05
2020.0,3.521e-05
2025.0,3.822e-05
2030.0,3.451e-05
2035.0,3.751e-05
2040.0,3.524e-05
2045.0,3.61e-05
2050.0,3.632e-05
2055.0,3.439e-05
2060.0,3.288e-05
2065.0,3.32e-05
2070.0,3.245e-05
2075.0,3.293e-05
2080.0,3.175e-05
2085.0,3.128e-05
2090.0,3.136e-05
2095.0,3.01e-05
2100.0,2.769e-05
2105.0,2.985e-05
2110.0,2.831e-05
2115.0,2.881e-05
2120.0,2.674e-05
2125.0,2.694e-05
2130.0,2.708e-05
2135.0,2.707e-05
2140.0,2.706e-05
2145.0,2.653e-05
2150.0,2.455e-05
2155.0,2.435e-05
2160.0,2.387e-05
2165.0,2.151e-05
2170.0,2.278e-05
2175.0,2.199e-05
2180.0,2.243e-05
2185.0,1.973e-05
2190.0,2.124e-05
2195.0,2.085e-05
2200.0,1.804e-05
2205.0,1.892e-05
2210.0,2.048e-05
2215.0,1.932e-05
2220.0,1.96e-05
2225.0,1.879e-05
2230.0,1.872e-05
2235.0,1.804e-05
2240.0,1.765e-05
2245.0,1.673e-05
2250.0,1.691e-05
2255.0,1.552e-05
2260.0,1.507e-05
2265.0,1.533e-05
2270.0,1.421e-05
2275.0,1.385e-05
2280.0,1.446e-05
2285.0,1.334e-05
2290.0,1.323e-05
2295.0,1.275e-05
2300.0,1.192e-05
2305.0,1.192e-05
2310.0,1.311e-05
2315.0,1.151e-05
2320.0,9.878e-06
2325.0,1.108e-05
2330.0,1.099e-05
2335.0,1.12e-05
2340.0,8.341e-06
2345.0,9.486e-06
2350.0,7.255e-06
2355.0,8.543e-06
2360.0,9.059e-06
2365.0,8.851e-06
2370.0,4.843e-06
2375.0,7.59e-06
2380.0,7.163e-06
2385.0,4.894e-06
2390.0,5.893e-06
2395.0,6.527e-06
2400.0,7.17e-06
2405.0,5.202e-06
2410.0,5.172e-06
2415.0,4.016e-06
2420.0,3.838e-06
2425.0,4.906e-06
2430.0,6.899e-06
2435.0,1.909e-06
2440.0,6.557e-06
2445.0,2.74e-06
2450.0,1.664e-06
2455.0,3.325e-06
2460.0,4.585e-06
2465.0,3.102e-06
2470.0,1.988e-06
2475.0,1.921e-06
2480.0,8.545e-07
2485.0,5.459e-07
2490.0,3.072e-07
2495.0,2.642e-07
2500.0,6.823e-07
2505.0,1.301e-07
2510.0,1.939e-07
2515.0,3.959e-08
2520.0,2.221e-08
2525.0,2.471e-09
2530.0,1.702e-11
2535.0,3.76e-12
2540.0,8.926e-12
2545.0,6.911e-16
2550.0,2.802e-18
2555.0,1.345e-14
2560.0,4.036e-16
2565.0,9.035e-20
2570.0,2.69e-24
2575.0,1.702e-34
2580.0,1.7750000000000002e-28
2585.0,3.709e-42
2590.0,2.314e-38
2595.0,4.502e-40
2600.0,3.707e-35
2605.0,4.0960000000000006e-42
2610.0,1.41e-41
2615.0,1.4009999999999999e-45
2620.0,1.243e-35
2625.0,2.276e-35
2630.0,0.0
2635.0,1.185e-21
2640.0,2.5649999999999997e-22
2645.0,1.118e-24
2650.0,1.114e-25
2655.0,1.339e-34
2660.0,1.128e-31
2665.0,1.121e-44
2670.0,0.0
2675.0,5.464999999999999e-44
2680.0,2.286e-30
2685.0,2.184e-31
2690.0,8.172e-31
2695.0,3.206e-33
2700.0,9.338e-29
2705.0,2.648e-26
2710.0,2.1080000000000002e-31
2715.0,2.6619999999999997e-29
2720.0,0.0
2725.0,5.961e-27
2730.0,1.738e-24
2735.0,1.9820000000000002e-26
2740.0,3.58e-32
2745.0,4.617e-27
2750.0,2.5880000000000004e-26
2755.0,4.163e-28
2760.0,6.235999999999999e-23
2765.0,2.9269999999999996e-29
2770.0,1.4380000000000002e-26
2775.0,1.776e-23
2780.0,8.268e-21
2785.0,3.104e-20
2790.0,7.077e-18
2795.0,1.557e-18
2800.0,4.971e-15
2805.0,9.292e-17
2810.0,3.727e-13
2815.0,1.111e-13
2820.0,1.358e-15
2825.0,1.192e-11
2830.0,2.594e-10
2835.0,3.569e-15
2840.0,7.637e-12
2845.0,2.649e-09
2850.0,4.576e-11
2855.0,1.827e-11
2860.0,9.509e-10
2865.0,7.023e-09
2870.0,1.777e-10
2875.0,1.711e-08
2880.0,1.077e-08
2885.0,1.777e-08
2890.0,7.54e-09
2895.0,1.294e-07
2900.0,3.591e-08
2905.0,4.145e-09
2910.0,1.319e-07
2915.0,5.584e-08
2920.0,1.39e-07
2925.0,4.936e-08
2930.0,3.008e-07
2935.0,3.32e-07
2940.0,7.387e-08
2945.0,6.341e-08
2950.0,2.574e-07
2955.0,1.141e-07
2960.0,2.273e-07
2965.0,3.859e-07
2970.0,1.495e-08
2975.0,3.795e-08
2980.0,5.914e-08
2985.0,3.506e-07
2990.0,5.329e-07
2995.0,2.012e-07
3000.0,3.84e-07
3005.0,1.3e-07
3010.0,3.361e-07
3015.0,2.602e-07
3020.0,2.33e-08
3025.0,3.595e-07
3030.0,2.83e-07
3035.0,1.07e-07
3040.0,8.356e-08
3045.0,1.802e-07
3050.0,4.056e-08
3055.0,9.892e-09
3060.0,2.818e-07
3065.0,1.187e-07
3070.0,6.651e-08
3075.0,2.63e-07
3080.0,1.522e-07
3085.0,6.693e-08
3090.0,9.121e-08
3095.0,2.229e-08
3100.0,1.834e-07
3105.0,3.4e-08
3110.0,2.847e-08
3115.0,8.596e-08
3120.0,4.281e-07
3125.0,1.24e-07
3130.0,2.482e-07
3135.0,5.031e-07
3140.0,1.317e-07
3145.0,1.291e-07
3150.0,2.752e-07
3155.0,2.311e-07
3160.0,3.868e-07
3165.0,6.128e-07
3170.0,5.423e-07
3175.0,3.789e-07
3180.0,4.485e-07
3185.0,3.127e-07
3190.0,1.621e-07
3195.0,8.959e-08
3200.0,1.245e-08
3205.0,8.124e-09
3210.0,3.373e-09
3215.0,1.38e-08
3220.0,4.894e-08
3225.0,5.546e-09
3230.0,9.24e-09
3235.0,2.687e-07
3240.0,1.207e-07
3245.0,2.247e-08
3250.0,8.405e-08
3255.0,3.704e-07
3260.0,3.565e-08
3265.0,7.793e-08
3270.0,3.638e-08
3275.0,2.249e-07
3280.0,9.434e-08
3285.0,4.221e-07
3290.0,3.155e-07
3295.0,3.743e-08
3300.0,5.59e-08
3305.0,1.302e-07
3310.0,1.237e-07
3315.0,1.721e-10
3320.0,1.088e-09
3325.0,1.038e-07
3330.0,1.583e-07
3335.0,3.118e-07
3340.0,1.122e-07
3345.0,1.089e-07
3350.0,2.759e-07
3355.0,1.099e-07
3360.0,1.696e-07
3365.0,2.402e-07
3370.0,1.149e-07
3375.0,2.82e-07
3380.0,1.515e-07
3385.0,2.414e-07
3390.0,3.186e-07
3395.0,3.08e-07
3400.0,4.174e-07
3405.0,1.253e-07
3410.0,2.214e-07
3415.0,2.153e-07
3420.0,4.333e-07
3425.0,3.088e-07
3430.0,2.6e-07
3435.0,3.721e-07
3440.0,2.371e-07
3445.0,3.55e-07
3450.0,3.467e-07
3455.0,2.46e-07
3460.0,3.951e-07
3465.0,2.917e-07
3470.0,3.822e-07
3475.0,3.313e-07
3480.0,3.396e-07
3485.0,3.696e-07
3490.0,3.08e-07
3495.0,3.716e-07
3500.0,3.589e-07
3505.0,3.536e-07
3510.0,3.581e-07
3515.0,3.417e-07
3520.0,3.652e-07
3525.0,3.396e-07
3530.0,3.292e-07
3535.0,2.684e-07
3540.0,2.538e-07
3545.0,2.694e-07
3550.0,3.044e-07
3555.0,2.545e-07
3560.0,3.119e-07
3565.0,3.112e-07
3570.0,2.327e-07
3575.0,2.406e-07
3580.0,2.91e-07
3585.0,2.531e-07
3590.0,2.643e-07
3595.0,2.7e-07
3600.0,2.89e-07
3605.0,2.885e-07
3610.0,2.605e-07
3615.0,2.605e-07
3620.0,3.266e-07
3625.0,2.781e-07
3630.0,2.701e-07
3635.0,2.783e-07
3640.0,3.148e-07
3645.0,2.824e-07
3650.0,2.675e-07
3655.0,2.929e-07
3660.0,2.9e-07
3665.0,2.664e-07
3670.0,1.982e-07
3675.0,1.107e-07
3680.0,2.061e-07
3685.0,2.381e-07
3690.0,2.458e-07
3695.0,2.569e-07
3700.0,2.791e-07
3705.0,2.736e-07
3710.0,2.322e-07
3715.0,2.278e-07
3720.0,2.616e-07
3725.0,2.688e-07
3730.0,2.272e-07
3735.0,2.048e-07
3740.0,2.108e-07
3745.0,2.506e-07
3750.0,2.238e-07
3755.0,2.154e-07
3760.0,2.111e-07
3765.0,2.019e-07
3770.0,2.177e-07
3775.0,2.141e-07
3780.0,2.282e-07
3785.0,2.054e-07
3790.0,1.775e-07
3795.0,2.064e-07
3800.0,2.345e-07
3805.0,2.177e-07
3810.0,1.886e-07
3815.0,1.744e-07
3820.0,2.251e-07
3825.0,2.191e-07
3830.0,2.222e-07
3835.0,1.696e-07
3840.0,2.041e-07
3845.0,1.976e-07
3850.0,1.983e-07
3855.0,1.881e-07
3860.0,1.73e-07
3865.0,1.74e-07
3870.0,1.545e-07
3875.0,1.379e-07
3880.0,1.32e-07
3885.0,1.37e-07
3890.0,1.387e-07
3895.0,1.541e-07
3900.0,1.65e-07
3905.0,1.639e-07
3910.0,1.435e-07
3915.0,1.388e-07
3920.0,1.381e-07
3925.0,1.349e-07
3930.0,1.398e-07
3935.0,1.463e-07
3940.0,1.479e-07
3945.0,1.504e-07
3950.0,1.526e-07
3955.0,1.539e-07
3960.0,1.55e-07
3965.0,1.559e-07
3970.0,1.533e-07
3975.0,1.482e-07
3980.0,1.453e-07
3985.0,1.453e-07
3990.0,1.427e-07
3995.0,1.385e-07
4000.0,1.321e-07
