interpolation:linear
wavelength,value
280.0,1.589e-21
280.5,3.112e-20
281.0,1.37e-19
281.5,2.652e-18
282.0,1.558e-17
282.5,4.803e-17
283.0,1.671e-16
283.5,2.734e-16
284.0,4.25e-15
284.5,1.148e-14
285.0,4.577e-14
285.5,2.969e-13
286.0,1.264e-12
286.5,6.309e-12
287.0,1.901e-11
287.5,7.787e-11
288.0,2.096e-10
288.5,7.46e-10
289.0,2.245e-09
289.5,7.533e-09
290.0,2.231e-08
290.5,4.738e-08
291.0,1.075e-07
291.5,3.379e-07
292.0,6.836e-07
292.5,9.226e-07
293.0,1.906e-06
293.5,4.502e-06
294.0,6.682e-06
294.5,1.671e-05
295.0,2.949e-05
295.5,5.043e-05
296.0,8.916e-05
296.5,0.0001146
297.0,0.0001447
297.5,0.0003514
298.0,0.0005092
298.5,0.0004799
299.0,0.0009933
299.5,0.001483
300.0,0.001535
300.5,0.00209
301.0,0.003435
301.5,0.005014
302.0,0.00409
302.5,0.007308
303.0,0.01174
303.5,0.01379
304.0,0.0124
304.5,0.0167
305.0,0.02209
305.5,0.02322
306.0,0.02167
306.5,0.02551
307.0,0.03378
307.5,0.04039
308.0,0.04174
308.5,0.04671
309.0,0.04635
309.5,0.0484
310.0,0.0465
310.5,0.07346
311.0,0.08884
311.5,0.08412
312.0,0.07818
312.5,0.09053
313.0,0.09544
313.5,0.09412
314.0,0.1111
314.5,0.09158
315.0,0.1183
315.5,0.1016
316.0,0.08361
316.5,0.1141
317.0,0.141
317.5,0.1478
318.0,0.1113
318.5,0.1297
319.0,0.1489
319.5,0.1263
320.0,0.1529
320.5,0.1797
321.0,0.1513
321.5,0.1436
322.0,0.1607
322.5,0.1387
323.0,0.1326
323.5,0.1622
324.0,0.1875
324.5,0.1916
325.0,0.1624
325.5,0.202
326.0,0.2524
326.5,0.2477
327.0,0.247
327.5,0.239
328.0,0.2161
328.5,0.2205
329.0,0.2577
329.5,0.2894
330.0,0.2917
330.5,0.2357
331.0,0.2401
331.5,0.2401
332.0,0.2542
332.5,0.2484
333.0,0.2474
333.5,0.2253
334.0,0.2301
334.5,0.2608
335.0,0.2421
335.5,0.2924
336.0,0.2014
336.5,0.2264
337.0,0.1858
337.5,0.2303
338.0,0.2215
338.5,0.2627
339.0,0.2568
339.5,0.2471
340.0,0.2803
340.5,0.2511
341.0,0.2506
341.5,0.2262
342.0,0.2683
342.5,0.249
343.0,0.2743
343.5,0.2584
344.0,0.1857
344.5,0.1931
345.0,0.2503
345.5,0.2529
346.0,0.2131
346.5,0.2397
347.0,0.2574
347.5,0.2075
348.0,0.2338
348.5,0.2318
349.0,0.2137
349.5,0.2106
350.0,0.2591
350.5,0.272
351.0,0.2424
351.5,0.2365
352.0,0.2513
352.5,0.1944
353.0,0.2431
353.5,0.2583
354.0,0.2666
354.5,0.269
355.0,0.2671
355.5,0.2399
356.0,0.2496
356.5,0.2121
357.0,0.1744
357.5,0.2124
358.0,0.1674
358.5,0.1423
359.0,0.1982
359.5,0.2518
360.0,0.2654
360.5,0.211
361.0,0.1913
361.5,0.2191
362.0,0.1885
362.5,0.2596
363.0,0.232
363.5,0.2127
364.0,0.2589
364.5,0.2202
365.0,0.2232
365.5,0.2788
366.0,0.2939
366.5,0.2748
367.0,0.2663
367.5,0.2751
368.0,0.2396
368.5,0.2406
369.0,0.2586
369.5,0.2743
370.0,0.291
370.5,0.2248
371.0,0.239
371.5,0.2976
372.0,0.1966
372.5,0.2346
373.0,0.2375
373.5,0.1538
374.0,0.2224
374.5,0.1834
375.0,0.1774
375.5,0.2636
376.0,0.2175
376.5,0.2243
377.0,0.2364
377.5,0.2752
378.0,0.297
378.5,0.2793
379.0,0.2293
379.5,0.2084
380.0,0.2156
380.5,0.2598
381.0,0.2591
381.5,0.2044
382.0,0.1806
382.5,0.1532
383.0,0.1411
383.5,0.1353
384.0,0.1485
384.5,0.2174
385.0,0.2146
385.5,0.1989
386.0,0.1696
386.5,0.2217
387.0,0.1833
387.5,0.2049
388.0,0.1883
388.5,0.1852
389.0,0.199
389.5,0.2399
390.0,0.2396
390.5,0.2194
391.0,0.257
391.5,0.2609
392.0,0.2187
392.5,0.1949
393.0,0.1079
393.5,0.07809
394.0,0.1582
394.5,0.2002
395.0,0.2432
395.5,0.2459
396.0,0.2122
396.5,0.1234
397.0,0.0922
397.5,0.1866
398.0,0.2601
398.5,0.2677
399.0,0.2885
399.5,0.2863
400.0,0.2959
401.0,0.2906
402.0,0.3036
403.0,0.2858
404.0,0.2788
405.0,0.2763
406.0,0.2692
407.0,0.2624
408.0,0.2702
409.0,0.2867
410.0,0.2484
411.0,0.2667
412.0,0.2839
413.0,0.2744
414.0,0.2753
415.0,0.2736
416.0,0.2759
417.0,0.2666
418.0,0.2593
419.0,0.2603
420.0,0.2568
421.0,0.2662
422.0,0.2508
423.0,0.2427
424.0,0.2544
425.0,0.2517
426.0,0.243
427.0,0.2364
428.0,0.2284
429.0,0.2145
430.0,0.1861
431.0,0.1828
432.0,0.2339
433.0,0.2331
434.0,0.2145
435.0,0.2221
436.0,0.2483
437.0,0.243
438.0,0.2195
439.0,0.2253
440.0,0.2305
441.0,0.2368
442.0,0.2518
443.0,0.2432
444.0,0.2464
445.0,0.239
446.0,0.2261
447.0,0.2424
448.0,0.2441
449.0,0.2429
450.0,0.2476
451.0,0.2546
452.0,0.2432
453.0,0.2269
454.0,0.2349
455.0,0.2344
456.0,0.238
457.0,0.2399
458.0,0.2299
459.0,0.2269
460.0,0.2257
461.0,0.2291
462.0,0.229
463.0,0.2257
464.0,0.2203
465.0,0.2158
466.0,0.2161
467.0,0.2104
468.0,0.211
469.0,0.2103
470.0,0.202
471.0,0.2003
472.0,0.2094
473.0,0.205
474.0,0.2037
475.0,0.2039
476.0,0.1963
477.0,0.1953
478.0,0.1991
479.0,0.1963
480.0,0.1952
481.0,0.197
482.0,0.1965
483.0,0.1926
484.0,0.1871
485.0,0.1768
486.0,0.1534
487.0,0.1595
488.0,0.1736
489.0,0.1728
490.0,0.1804
491.0,0.176
492.0,0.1649
493.0,0.169
494.0,0.1694
495.0,0.1696
496.0,0.1694
497.0,0.1708
498.0,0.1616
499.0,0.1625
500.0,0.1566
501.0,0.1525
502.0,0.1493
503.0,0.1542
504.0,0.1492
505.0,0.1535
506.0,0.1573
507.0,0.1485
508.0,0.1428
509.0,0.1457
510.0,0.1439
511.0,0.1467
512.0,0.1472
513.0,0.1383
514.0,0.1364
515.0,0.1341
516.0,0.1328
517.0,0.1172
518.0,0.1224
519.0,0.1274
520.0,0.1311
521.0,0.1314
522.0,0.1306
523.0,0.1274
524.0,0.1311
525.0,0.1319
526.0,0.1251
527.0,0.1171
528.0,0.123
529.0,0.1288
530.0,0.1262
531.0,0.1272
532.0,0.122
533.0,0.1177
534.0,0.1204
535.0,0.1222
536.0,0.1224
537.0,0.1168
538.0,0.118
539.0,0.1163
540.0,0.1108
541.0,0.1108
542.0,0.1135
543.0,0.1115
544.0,0.1129
545.0,0.1119
546.0,0.1117
547.0,0.1108
548.0,0.1088
549.0,0.1084
550.0,0.109
551.0,0.1069
552.0,0.1069
553.0,0.1043
554.0,0.1062
555.0,0.1057
556.0,0.1036
557.0,0.09972
558.0,0.09831
559.0,0.09584
560.0,0.09641
561.0,0.09701
562.0,0.09568
563.0,0.09767
564.0,0.09442
565.0,0.09304
566.0,0.09107
567.0,0.09219
568.0,0.09079
569.0,0.08808
570.0,0.08752
571.0,0.08644
572.0,0.08794
573.0,0.08834
574.0,0.08756
575.0,0.08542
576.0,0.08409
577.0,0.08444
578.0,0.08265
579.0,0.08247
580.0,0.08351
581.0,0.08339
582.0,0.0844
583.0,0.08412
584.0,0.08438
585.0,0.08183
586.0,0.07959
587.0,0.08077
588.0,0.07835
589.0,0.06899
590.0,0.07175
591.0,0.0755
592.0,0.07409
593.0,0.07472
594.0,0.07375
595.0,0.07151
596.0,0.07392
597.0,0.07271
598.0,0.07208
599.0,0.07171
600.0,0.0714
601.0,0.07041
602.0,0.06952
603.0,0.07023
604.0,0.07095
605.0,0.07016
606.0,0.06946
607.0,0.06973
608.0,0.06852
609.0,0.0682
610.0,0.06731
611.0,0.06726
612.0,0.06667
613.0,0.06542
614.0,0.06412
615.0,0.06513
616.0,0.06262
617.0,0.06213
618.0,0.06415
619.0,0.06315
620.0,0.06318
621.0,0.06288
622.0,0.06178
623.0,0.06047
624.0,0.05907
625.0,0.05863
626.0,0.05919
627.0,0.05951
628.0,0.0552
629.0,0.05739
630.0,0.05573
631.0,0.05666
632.0,0.05567
633.0,0.05708
634.0,0.05623
635.0,0.05677
636.0,0.05569
637.0,0.05628
638.0,0.05651
639.0,0.05556
640.0,0.0547
641.0,0.05434
642.0,0.05382
643.0,0.05427
644.0,0.05381
645.0,0.05358
646.0,0.05201
647.0,0.05111
648.0,0.05084
649.0,0.04959
650.0,0.04957
651.0,0.05143
652.0,0.04897
653.0,0.05019
654.0,0.04937
655.0,0.04724
656.0,0.04164
657.0,0.04256
658.0,0.04746
659.0,0.04756
660.0,0.04749
661.0,0.04756
662.0,0.04742
663.0,0.04626
664.0,0.04656
665.0,0.04634
666.0,0.04613
667.0,0.04584
668.0,0.04563
669.0,0.04608
670.0,0.04563
671.0,0.04538
672.0,0.0448
673.0,0.04529
674.0,0.04487
675.0,0.04421
676.0,0.04429
677.0,0.04365
678.0,0.04357
679.0,0.04265
680.0,0.04278
681.0,0.04228
682.0,0.04201
683.0,0.04172
684.0,0.04128
685.0,0.04141
686.0,0.04096
687.0,0.02687
688.0,0.03143
689.0,0.03138
690.0,0.03276
691.0,0.03436
692.0,0.03548
693.0,0.03499
694.0,0.03446
695.0,0.03573
696.0,0.03558
697.0,0.03772
698.0,0.03695
699.0,0.03582
700.0,0.0352
701.0,0.03469
702.0,0.03479
703.0,0.03467
704.0,0.03562
705.0,0.03549
706.0,0.0353
707.0,0.03516
708.0,0.03506
709.0,0.03494
710.0,0.03475
711.0,0.03459
712.0,0.03437
713.0,0.03385
714.0,0.03379
715.0,0.03253
716.0,0.0324
717.0,0.0278
718.0,0.02523
719.0,0.0228
720.0,0.02391
721.0,0.02641
722.0,0.03039
723.0,0.02797
724.0,0.02488
725.0,0.02439
726.0,0.02554
727.0,0.02569
728.0,0.024
729.0,0.02483
730.0,0.02627
731.0,0.02493
732.0,0.02664
733.0,0.02815
734.0,0.02869
735.0,0.02796
736.0,0.0278
737.0,0.02777
738.0,0.02809
739.0,0.02739
740.0,0.02798
741.0,0.02757
742.0,0.02747
743.0,0.02802
744.0,0.02779
745.0,0.02766
746.0,0.02766
747.0,0.02759
748.0,0.02738
749.0,0.02693
750.0,0.02678
751.0,0.02639
752.0,0.02638
753.0,0.02637
754.0,0.02629
755.0,0.02602
756.0,0.0259
757.0,0.02581
758.0,0.02537
759.0,0.02472
760.0,0.00392
761.0,0.002022
762.0,0.01223
763.0,0.005958
764.0,0.00901
765.0,0.01204
766.0,0.01482
767.0,0.01873
768.0,0.02161
769.0,0.02198
770.0,0.02265
771.0,0.02275
772.0,0.02269
773.0,0.02273
774.0,0.0225
775.0,0.02224
776.0,0.02241
777.0,0.02201
778.0,0.02176
779.0,0.02167
780.0,0.02145
781.0,0.02137
782.0,0.0214
783.0,0.02093
784.0,0.02093
785.0,0.02068
786.0,0.02081
787.0,0.02034
788.0,0.01999
789.0,0.01987
790.0,0.01923
791.0,0.01932
792.0,0.01909
793.0,0.01868
794.0,0.01894
795.0,0.01917
796.0,0.01846
797.0,0.01841
798.0,0.01889
799.0,0.01868
800.0,0.01825
801.0,0.0181
802.0,0.01797
803.0,0.01775
804.0,0.01769
805.0,0.01757
806.0,0.01799
807.0,0.01768
808.0,0.01762
809.0,0.01721
810.0,0.01698
811.0,0.01693
812.0,0.01634
813.0,0.0159
814.0,0.0138
815.0,0.01364
816.0,0.01251
817.0,0.0127
818.0,0.01217
819.0,0.01368
820.0,0.01276
821.0,0.01507
822.0,0.01453
823.0,0.009476
824.0,0.01396
825.0,0.0145
826.0,0.01383
827.0,0.01461
828.0,0.01216
829.0,0.01357
830.0,0.01332
831.0,0.01332
832.0,0.01281
833.0,0.01372
834.0,0.01313
835.0,0.01445
836.0,0.01372
837.0,0.01436
838.0,0.01385
839.0,0.01402
840.0,0.01427
841.0,0.014
842.0,0.01398
843.0,0.01392
844.0,0.01366
845.0,0.01407
846.0,0.01394
847.0,0.01363
848.0,0.01348
849.0,0.01304
850.0,0.01244
851.0,0.01311
852.0,0.01296
853.0,0.01242
854.0,0.01067
855.0,0.01168
856.0,0.01271
857.0,0.01295
858.0,0.0128
859.0,0.01275
860.0,0.01272
861.0,0.01259
862.0,0.01274
863.0,0.01299
864.0,0.01229
865.0,0.01213
866.0,0.01086
867.0,0.01129
868.0,0.01223
869.0,0.01193
870.0,0.01222
871.0,0.012
872.0,0.01191
873.0,0.01184
874.0,0.01164
875.0,0.01135
876.0,0.01142
877.0,0.01149
878.0,0.01156
879.0,0.01134
880.0,0.01105
881.0,0.01084
882.0,0.01103
883.0,0.01102
884.0,0.01092
885.0,0.01096
886.0,0.01039
887.0,0.01047
888.0,0.01058
889.0,0.01066
890.0,0.01051
891.0,0.01046
892.0,0.01011
893.0,0.009729
894.0,0.009316
895.0,0.008725
896.0,0.008095
897.0,0.006817
898.0,0.007484
899.0,0.005473
900.0,0.007632
901.0,0.005796
902.0,0.006862
903.0,0.0069
904.0,0.008871
905.0,0.008497
906.0,0.007875
907.0,0.006214
908.0,0.006344
909.0,0.006926
910.0,0.006016
911.0,0.006425
912.0,0.006727
913.0,0.006036
914.0,0.005949
915.0,0.006519
916.0,0.005351
917.0,0.007005
918.0,0.00548
919.0,0.007067
920.0,0.007101
921.0,0.00744
922.0,0.006547
923.0,0.007126
924.0,0.006683
925.0,0.006484
926.0,0.00656
927.0,0.007382
928.0,0.005221
929.0,0.004713
930.0,0.003579
931.0,0.003336
932.0,0.002308
933.0,0.001828
934.0,0.0009481
935.0,0.001848
936.0,0.001096
937.0,0.001112
938.0,0.001394
939.0,0.003124
940.0,0.003843
941.0,0.002808
942.0,0.003281
943.0,0.002028
944.0,0.002126
945.0,0.002843
946.0,0.001326
947.0,0.002842
948.0,0.001982
949.0,0.00393
950.0,0.0009356
951.0,0.003828
952.0,0.001891
953.0,0.002509
954.0,0.003152
955.0,0.002539
956.0,0.002412
957.0,0.001869
958.0,0.003535
959.0,0.002728
960.0,0.003112
961.0,0.003515
962.0,0.003289
963.0,0.003849
964.0,0.003468
965.0,0.003801
966.0,0.0038
967.0,0.003762
968.0,0.005201
969.0,0.005466
970.0,0.004937
971.0,0.00573
972.0,0.005418
973.0,0.004632
974.0,0.004353
975.0,0.004502
976.0,0.004246
977.0,0.004888
978.0,0.004601
979.0,0.004834
980.0,0.004479
981.0,0.00548
982.0,0.005194
983.0,0.004946
984.0,0.005609
985.0,0.00512
986.0,0.005678
987.0,0.005537
988.0,0.005503
989.0,0.005604
990.0,0.005433
991.0,0.005574
992.0,0.005585
993.0,0.005432
994.0,0.005545
995.0,0.005519
996.0,0.00547
997.0,0.005458
998.0,0.005411
999.0,0.005373
1000.0,0.005312
1001.0,0.005362
1002.0,0.005182
1003.0,0.005226
1004.0,0.005075
1005.0,0.004874
1006.0,0.005042
1007.0,0.00513
1008.0,0.005081
1009.0,0.005033
1010.0,0.004991
1011.0,0.005029
1012.0,0.004962
1013.0,0.00498
1014.0,0.004927
1015.0,0.004876
1016.0,0.004834
1017.0,0.004827
1018.0,0.004792
1019.0,0.004666
1020.0,0.004728
1021.0,0.004704
1022.0,0.004648
1023.0,0.00468
1024.0,0.004598
1025.0,0.004645
1026.0,0.004606
1027.0,0.004577
1028.0,0.004551
1029.0,0.004481
1030.0,0.004497
1031.0,0.004461
1032.0,0.004431
1033.0,0.004347
1034.0,0.004331
1035.0,0.004327
1036.0,0.004333
1037.0,0.004246
1038.0,0.00425
1039.0,0.004233
1040.0,0.0042
1041.0,0.0042
1042.0,0.004155
1043.0,0.004127
1044.0,0.004127
1045.0,0.004055
1046.0,0.003995
1047.0,0.004015
1048.0,0.004023
1049.0,0.003995
1050.0,0.003961
1051.0,0.00394
1052.0,0.003909
1053.0,0.003865
1054.0,0.003859
1055.0,0.003846
1056.0,0.003818
1057.0,0.003791
1058.0,0.003685
1059.0,0.003676
1060.0,0.003657
1061.0,0.003638
1062.0,0.003643
1063.0,0.003594
1064.0,0.003625
1065.0,0.003584
1066.0,0.003501
1067.0,0.003533
1068.0,0.003442
1069.0,0.003323
1070.0,0.003422
1071.0,0.003466
1072.0,0.003411
1073.0,0.003351
1074.0,0.00343
1075.0,0.003236
1076.0,0.003401
1077.0,0.003321
1078.0,0.003245
1079.0,0.003311
1080.0,0.003229
1081.0,0.003116
1082.0,0.003164
1083.0,0.003163
1084.0,0.003067
1085.0,0.003185
1086.0,0.002864
1087.0,0.002974
1088.0,0.003099
1089.0,0.002983
1090.0,0.002892
1091.0,0.003052
1092.0,0.003036
1093.0,0.002523
1094.0,0.002755
1095.0,0.002626
1096.0,0.002491
1097.0,0.002916
1098.0,0.002435
1099.0,0.002536
1100.0,0.002323
1101.0,0.002353
1102.0,0.002231
1103.0,0.002194
1104.0,0.002191
1105.0,0.00242
1106.0,0.001788
1107.0,0.00227
1108.0,0.001878
1109.0,0.001871
1110.0,0.002224
1111.0,0.001425
1112.0,0.001837
1113.0,0.001098
1114.0,0.001242
1115.0,0.000994
1116.0,0.0007745
1117.0,0.0002534
1118.0,0.0008439
1119.0,0.0003832
1120.0,0.0004979
1121.0,0.0006824
1122.0,0.000257
1123.0,0.0004372
1124.0,0.0003589
1125.0,0.000486
1126.0,0.0001503
1127.0,0.0005527
1128.0,0.0003118
1129.0,0.0003319
1130.0,0.000208
1131.0,0.001132
1132.0,0.0008513
1133.0,0.0005101
1134.0,0.0001114
1135.0,3.775e-05
1136.0,0.0004116
1137.0,0.001092
1138.0,0.0007241
1139.0,0.001129
1140.0,0.0009211
1141.0,0.0006753
1142.0,0.0007874
1143.0,0.001177
1144.0,0.0003539
1145.0,0.0004692
1146.0,0.0005101
1147.0,0.0001588
1148.0,0.0009745
1149.0,0.0007528
1150.0,0.0003769
1151.0,0.0006864
1152.0,0.0008659
1153.0,0.0008292
1154.0,0.0004414
1155.0,0.001126
1156.0,0.0009965
1157.0,0.001131
1158.0,0.001113
1159.0,0.001211
1160.0,0.001011
1161.0,0.001277
1162.0,0.001275
1163.0,0.001785
1164.0,0.001497
1165.0,0.001401
1166.0,0.001379
1167.0,0.001514
1168.0,0.00153
1169.0,0.001571
1170.0,0.001712
1171.0,0.001656
1172.0,0.001681
1173.0,0.00169
1174.0,0.001154
1175.0,0.001638
1176.0,0.001807
1177.0,0.001724
1178.0,0.001244
1179.0,0.001804
1180.0,0.001583
1181.0,0.001639
1182.0,0.001073
1183.0,0.001607
1184.0,0.001481
1185.0,0.001419
1186.0,0.001711
1187.0,0.001616
1188.0,0.001081
1189.0,0.001488
1190.0,0.001646
1191.0,0.001552
1192.0,0.001661
1193.0,0.001578
1194.0,0.001629
1195.0,0.001531
1196.0,0.001465
1197.0,0.001623
1198.0,0.001465
1199.0,0.001225
1200.0,0.00153
1201.0,0.001466
1202.0,0.00145
1203.0,0.001444
1204.0,0.001231
1205.0,0.001475
1206.0,0.001647
1207.0,0.001431
1208.0,0.001408
1209.0,0.001432
1210.0,0.001493
1211.0,0.001411
1212.0,0.001391
1213.0,0.001558
1214.0,0.001419
1215.0,0.001384
1216.0,0.001538
1217.0,0.001489
1218.0,0.001515
1219.0,0.001491
1220.0,0.001507
1221.0,0.001519
1222.0,0.00147
1223.0,0.001452
1224.0,0.001438
1225.0,0.00149
1226.0,0.001496
1227.0,0.001369
1228.0,0.001495
1229.0,0.001482
1230.0,0.001451
1231.0,0.00149
1232.0,0.001477
1233.0,0.001418
1234.0,0.001475
1235.0,0.001461
1236.0,0.001467
1237.0,0.001441
1238.0,0.001453
1239.0,0.001429
1240.0,0.00143
1241.0,0.001418
1242.0,0.001411
1243.0,0.001394
1244.0,0.001399
1245.0,0.001401
1246.0,0.001388
1247.0,0.001378
1248.0,0.001372
1249.0,0.001373
1250.0,0.00136
1251.0,0.001338
1252.0,0.001334
1253.0,0.001318
1254.0,0.0013
1255.0,0.00132
1256.0,0.001277
1257.0,0.001265
1258.0,0.001286
1259.0,0.001233
1260.0,0.001236
1261.0,0.00116
1262.0,0.00112
1263.0,0.001119
1264.0,0.001025
1265.0,0.001106
1266.0,0.001058
1267.0,0.001075
1268.0,0.001014
1269.0,0.0006088
1270.0,0.001062
1271.0,0.001126
1272.0,0.001126
1273.0,0.00111
1274.0,0.001111
1275.0,0.001124
1276.0,0.001132
1277.0,0.001136
1278.0,0.001156
1279.0,0.001142
1280.0,0.001124
1281.0,0.00107
1282.0,0.001028
1283.0,0.001104
1284.0,0.001126
1285.0,0.00113
1286.0,0.001143
1287.0,0.00112
1288.0,0.001117
1289.0,0.001076
1290.0,0.0011
1291.0,0.001112
1292.0,0.001036
1293.0,0.001082
1294.0,0.00107
1295.0,0.001062
1296.0,0.001007
1297.0,0.0009454
1298.0,0.001021
1299.0,0.001063
1300.0,0.0008835
1301.0,0.0009113
1302.0,0.001006
1303.0,0.0008631
1304.0,0.0007243
1305.0,0.0009731
1306.0,0.0009712
1307.0,0.0007313
1308.0,0.0008484
1309.0,0.0009551
1310.0,0.0007095
1311.0,0.0008034
1312.0,0.0007813
1313.0,0.0007614
1314.0,0.000668
1315.0,0.0006625
1316.0,0.0007804
1317.0,0.0007298
1318.0,0.0007993
1319.0,0.0006073
1320.0,0.00058
1321.0,0.0006895
1322.0,0.0006974
1323.0,0.0005064
1324.0,0.0005845
1325.0,0.0007466
1326.0,0.0006283
1327.0,0.0005937
1328.0,0.0005002
1329.0,0.0003643
1330.0,0.0004908
1331.0,0.0002787
1332.0,0.0002859
1333.0,0.0004176
1334.0,0.0003381
1335.0,0.0004867
1336.0,0.000372
1337.0,0.0003238
1338.0,0.000354
1339.0,0.0003507
1340.0,0.0003353
1341.0,0.0003302
1342.0,0.0003485
1343.0,0.0002295
1344.0,0.0001258
1345.0,0.0001905
1346.0,8.959e-05
1347.0,9.173e-05
1348.0,4.857e-06
1349.0,1.917e-05
1350.0,1.946e-05
1351.0,4.464e-06
1352.0,1.158e-06
1353.0,5.36e-08
1354.0,1.883e-07
1355.0,1.42e-09
1356.0,2.552e-08
1357.0,3.916e-08
1358.0,1.669e-09
1359.0,2.09e-10
1360.0,7.578e-10
1361.0,8.32e-13
1362.0,2.267e-15
1363.0,1.027e-09
1364.0,4.204e-10
1365.0,7.917e-16
1366.0,4.541e-09
1367.0,1.817e-09
1368.0,6.111e-18
1369.0,1.537e-10
1370.0,7.567e-11
1371.0,4.251e-12
1372.0,9.779e-10
1373.0,2.04e-08
1374.0,9.723e-08
1375.0,1.808e-07
1376.0,1.579e-07
1377.0,7.061e-08
1378.0,7.527e-07
1379.0,2.89e-08
1380.0,4.232e-08
1381.0,1.051e-09
1382.0,8.576e-10
1383.0,1.257e-11
1384.0,1.669e-10
1385.0,7.979e-10
1386.0,7.588e-10
1387.0,9.87e-08
1388.0,1.786e-09
1389.0,3.416e-07
1390.0,2.903e-07
1391.0,1.911e-07
1392.0,1.153e-08
1393.0,6.279e-08
1394.0,3.281e-08
1395.0,2.256e-10
1396.0,1.082e-12
1397.0,2.433e-08
1398.0,8.037e-07
1399.0,4.943e-07
1400.0,4.628e-13
1401.0,1.921e-12
1402.0,1.377e-06
1403.0,1.77e-06
1404.0,5.039e-07
1405.0,1.067e-10
1406.0,1.398e-06
1407.0,1.099e-07
1408.0,1.118e-06
1409.0,3.6e-07
1410.0,2.818e-07
1411.0,1.503e-06
1412.0,2.034e-06
1413.0,2.429e-05
1414.0,2.174e-07
1415.0,1.022e-07
1416.0,4.043e-05
1417.0,1.109e-05
1418.0,1.271e-05
1419.0,1.723e-06
1420.0,7.397e-06
1421.0,8.094e-06
1422.0,5.346e-05
1423.0,8.809e-06
1424.0,1.733e-05
1425.0,2.658e-05
1426.0,3.021e-05
1427.0,5.848e-05
1428.0,3.576e-06
1429.0,4.238e-05
1430.0,7.587e-05
1431.0,8.38e-05
1432.0,2.735e-06
1433.0,5.034e-05
1434.0,2.382e-05
1435.0,2.4e-05
1436.0,4.93e-05
1437.0,3.651e-05
1438.0,1.416e-05
1439.0,6.884e-05
1440.0,4.986e-05
1441.0,3.681e-05
1442.0,4.111e-05
1443.0,5.24e-05
1444.0,7.557e-05
1445.0,5.728e-05
1446.0,2.342e-05
1447.0,3.89e-05
1448.0,0.0001517
1449.0,0.0001294
1450.0,2.768e-05
1451.0,1.018e-05
1452.0,7.219e-05
1453.0,9.795e-05
1454.0,0.0001811
1455.0,7.662e-05
1456.0,0.0001074
1457.0,0.0001492
1458.0,0.0001787
1459.0,0.0002171
1460.0,0.0001024
1461.0,0.0001075
1462.0,0.0001666
1463.0,4.615e-05
1464.0,0.000201
1465.0,0.0001119
1466.0,7.342e-05
1467.0,3.57e-05
1468.0,8.817e-05
1469.0,0.0001115
1470.0,5.081e-05
1471.0,1.638e-05
1472.0,4.814e-05
1473.0,7.714e-05
1474.0,0.0001174
1475.0,0.0002431
1476.0,7.595e-05
1477.0,7.66e-05
1478.0,6.968e-05
1479.0,0.0001464
1480.0,6.425e-05
1481.0,0.0001384
1482.0,6.204e-05
1483.0,0.0001865
1484.0,0.0001706
1485.0,0.0001496
1486.0,0.0001469
1487.0,6.113e-05
1488.0,0.0001149
1489.0,0.0002458
1490.0,0.0002227
1491.0,0.0002558
1492.0,0.0002067
1493.0,0.0002301
1494.0,0.0002621
1495.0,0.0002286
1496.0,0.0002121
1497.0,0.0003011
1498.0,0.0002392
1499.0,0.0002854
1500.0,0.0003322
1501.0,0.0003519
1502.0,0.0002905
1503.0,0.0002427
1504.0,0.0001893
1505.0,0.0002324
1506.0,0.0003472
1507.0,0.0003318
1508.0,0.0003135
1509.0,0.000232
1510.0,0.0003573
1511.0,0.0003443
1512.0,0.0003398
1513.0,0.0003096
1514.0,0.0002867
1515.0,0.0003471
1516.0,0.0003302
1517.0,0.0003219
1518.0,0.0003197
1519.0,0.0003118
1520.0,0.0003369
1521.0,0.0003592
1522.0,0.0003403
1523.0,0.0003627
1524.0,0.0003513
1525.0,0.0003341
1526.0,0.0003386
1527.0,0.0003344
1528.0,0.0003565
1529.0,0.0003377
1530.0,0.0003309
1531.0,0.0003393
1532.0,0.0003521
1533.0,0.0003512
1534.0,0.0003443
1535.0,0.0003417
1536.0,0.0003473
1537.0,0.0003389
1538.0,0.0003416
1539.0,0.000335
1540.0,0.0003352
1541.0,0.0003368
1542.0,0.0003323
1543.0,0.0003374
1544.0,0.0003327
1545.0,0.0003382
1546.0,0.0003323
1547.0,0.0003268
1548.0,0.000326
1549.0,0.0003281
1550.0,0.0003251
1551.0,0.0003268
1552.0,0.0003235
1553.0,0.0003206
1554.0,0.0003171
1555.0,0.0003171
1556.0,0.0003161
1557.0,0.0003191
1558.0,0.0003166
1559.0,0.0003139
1560.0,0.0003154
1561.0,0.0003169
1562.0,0.0003122
1563.0,0.000309
1564.0,0.0003097
1565.0,0.0003095
1566.0,0.0003048
1567.0,0.0003047
1568.0,0.000301
1569.0,0.0003022
1570.0,0.0003043
1571.0,0.0003062
1572.0,0.0003036
1573.0,0.000301
1574.0,0.0002897
1575.0,0.0002856
1576.0,0.0002806
1577.0,0.0002728
1578.0,0.0002859
1579.0,0.000288
1580.0,0.0002898
1581.0,0.0002849
1582.0,0.0002785
1583.0,0.0002792
1584.0,0.0002835
1585.0,0.0002859
1586.0,0.000282
1587.0,0.0002768
1588.0,0.0002682
1589.0,0.0002593
1590.0,0.0002646
1591.0,0.0002705
1592.0,0.000278
1593.0,0.0002816
1594.0,0.0002804
1595.0,0.0002761
1596.0,0.0002674
1597.0,0.0002737
1598.0,0.0002768
1599.0,0.0002731
1600.0,0.0002706
1601.0,0.0002662
1602.0,0.0002664
1603.0,0.0002683
1604.0,0.0002656
1605.0,0.0002648
1606.0,0.0002611
1607.0,0.0002628
1608.0,0.000262
1609.0,0.0002544
1610.0,0.0002486
1611.0,0.0002524
1612.0,0.0002547
1613.0,0.0002546
1614.0,0.0002539
1615.0,0.0002477
1616.0,0.0002433
1617.0,0.0002476
1618.0,0.0002512
1619.0,0.000246
1620.0,0.0002401
1621.0,0.0002423
1622.0,0.0002455
1623.0,0.0002485
1624.0,0.000245
1625.0,0.0002435
1626.0,0.0002435
1627.0,0.0002447
1628.0,0.0002435
1629.0,0.0002407
1630.0,0.0002387
1631.0,0.0002368
1632.0,0.0002357
1633.0,0.0002281
1634.0,0.0002326
1635.0,0.0002289
1636.0,0.0002264
1637.0,0.0002233
1638.0,0.0002099
1639.0,0.0002175
1640.0,0.0002078
1641.0,0.0002148
1642.0,0.0002185
1643.0,0.0002061
1644.0,0.0002174
1645.0,0.0002109
1646.0,0.0002055
1647.0,0.0002193
1648.0,0.0002038
1649.0,0.000213
1650.0,0.000214
1651.0,0.0001982
1652.0,0.0002109
1653.0,0.0002123
1654.0,0.0002006
1655.0,0.0002112
1656.0,0.0002073
1657.0,0.0002083
1658.0,0.0002104
1659.0,0.0002083
1660.0,0.0002095
1661.0,0.0002079
1662.0,0.0002017
1663.0,0.0002058
1664.0,0.0002034
1665.0,0.0001916
1666.0,0.0001561
1667.0,0.0001888
1668.0,0.0001952
1669.0,0.000196
1670.0,0.0001989
1671.0,0.0001927
1672.0,0.0001899
1673.0,0.0001938
1674.0,0.0001892
1675.0,0.0001857
1676.0,0.0001865
1677.0,0.0001858
1678.0,0.00018
1679.0,0.0001833
1680.0,0.0001754
1681.0,0.0001697
1682.0,0.0001787
1683.0,0.000182
1684.0,0.0001683
1685.0,0.0001832
1686.0,0.0001822
1687.0,0.0001749
1688.0,0.0001802
1689.0,0.0001778
1690.0,0.0001768
1691.0,0.0001606
1692.0,0.0001752
1693.0,0.0001797
1694.0,0.0001725
1695.0,0.000177
1696.0,0.0001764
1697.0,0.0001475
1698.0,0.000174
1699.0,0.0001712
1700.0,0.0001661
1702.0,0.0001684
1705.0,0.000162
1710.0,0.0001514
1715.0,0.0001498
1720.0,0.0001465
1725.0,0.000135
1730.0,0.0001318
1735.0,0.0001214
1740.0,0.0001219
1745.0,0.0001124
1750.0,0.00012
1755.0,0.0001083
1760.0,0.0001127
1765.0,8.928e-05
1770.0,9.57e-05
1775.0,7.43e-05
1780.0,6.202e-05
1785.0,4.482e-05
1790.0,5.253e-05
1795.0,2.417e-05
1800.0,1.563e-05
1805.0,5.995e-06
1810.0,3.718e-06
1815.0,1.04e-06
1820.0,2.454e-07
1825.0,3.249e-07
1830.0,6.982e-10
1835.0,1.05e-09
1840.0,6.015e-12
1845.0,6.711e-10
1850.0,2.993e-10
1855.0,2.79e-11
1860.0,1.636e-09
1865.0,2.309e-09
1870.0,1.207e-14
1875.0,2.181e-14
1880.0,1.239e-08
1885.0,6.523e-09
1890.0,3.745e-08
1895.0,2.118e-08
1900.0,8.523e-11
1905.0,5.786e-11
1910.0,2.898e-09
1915.0,2.79e-09
1920.0,7.865e-08
1925.0,1.869e-07
1930.0,1.058e-07
1935.0,8.659e-07
1940.0,8.409e-07
1945.0,3.759e-06
1950.0,7.626e-06
1955.0,6.85e-06
1960.0,1.243e-05
1965.0,1.867e-05
1970.0,2.691e-05
1975.0,3.072e-05
1980.0,3.069e-05
1985.0,3.304e-05
1990.0,3.403e-05
1995.0,3.582e-05
2000.0,3.753e-05
2005.0,3.099e-05
2010.0,4.5e-05
2015.0,3.46e-05
2020.0,3.685e-05
2025.0,3.981e-05
2030.0,3.605e-05
2035.0,3.899e-05
2040.0,3.672e-05
2045.0,3.755e-05
2050.0,3.771e-05
2055.0,3.576e-05
2060.0,3.422e-05
2065.0,3.45e-05
2070.0,3.373e-05
2075.0,3.418e-05
2080.0,3.296e-05
2085.0,3.247e-05
2090.0,3.253e-05
2095.0,3.124e-05
2100.0,2.882e-05
2105.0,3.097e-05
2110.0,2.942e-05
2115.0,2.989e-05
2120.0,2.78e-05
2125.0,2.799e-05
2130.0,2.81e-05
2135.0,2.809e-05
2140.0,2.806e-05
2145.0,2.752e-05
2150.0,2.553e-05
2155.0,2.532e-05
2160.0,2.481e-05
2165.0,2.237e-05
2170.0,2.366e-05
2175.0,2.288e-05
2180.0,2.33e-05
2185.0,2.058e-05
2190.0,2.209e-05
2195.0,2.169e-05
2200.0,1.887e-05
2205.0,1.971e-05
2210.0,2.125e-05
2215.0,2.009e-05
2220.0,2.036e-05
2225.0,1.953e-05
2230.0,1.944e-05
2235.0,1.875e-05
2240.0,1.834e-05
2245.0,1.741e-05
2250.0,1.756e-05
2255.0,1.616e-05
2260.0,1.569e-05
2265.0,1.593e-05
2270.0,1.48e-05
2275.0,1.443e-05
2280.0,1.501e-05
2285.0,1.389e-05
2290.0,1.377e-05
2295.0,1.328e-05
2300.0,1.245e-05
2305.0,1.244e-05
2310.0,1.361e-05
2315.0,1.201e-05
2320.0,1.035e-05
2325.0,1.154e-05
2330.0,1.146e-05
2335.0,1.166e-05
2340.0,8.763e-06
2345.0,9.931e-06
2350.0,7.628e-06
2355.0,8.957e-06
2360.0,9.477e-06
2365.0,9.242e-06
2370.0,5.149e-06
2375.0,7.965e-06
2380.0,7.511e-06
2385.0,5.174e-06
2390.0,6.2e-06
2395.0,6.859e-06
2400.0,7.515e-06
2405.0,5.471e-06
2410.0,5.446e-06
2415.0,4.242e-06
2420.0,4.042e-06
2425.0,5.161e-06
2430.0,7.226e-06
2435.0,2.016e-06
2440.0,6.849e-06
2445.0,2.889e-06
2450.0,1.76e-06
2455.0,3.499e-06
2460.0,4.818e-06
2465.0,3.274e-06
2470.0,2.112e-06
2475.0,2.044e-06
2480.0,9.089e-07
2485.0,5.834e-07
2490.0,3.294e-07
2495.0,2.819e-07
2500.0,7.339e-07
2505.0,1.367e-07
2510.0,2.051e-07
2515.0,4.134e-08
2520.0,2.379e-08
2525.0,2.538e-09
2530.0,1.734e-11
2535.0,3.818e-12
2540.0,9.088e-12
2545.0,6.922e-16
2550.0,2.804e-18
2555.0,1.35e-14
2560.0,4.042e-16
2565.0,9.043000000000001e-20
2570.0,2.692e-24
2575.0,1.703e-34
2580.0,1.7760000000000001e-28
2585.0,3.711e-42
2590.0,2.316e-38
2595.0,4.506e-40
2600.0,3.71e-35
2605.0,4.1e-42
2610.0,1.411e-41
2615.0,1.4009999999999999e-45
2620.0,1.243e-35
2625.0,2.277e-35
2630.0,0.0
2635.0,1.186e-21
2640.0,2.5659999999999997e-22
2645.0,1.119e-24
2650.0,1.114e-25
2655.0,1.34e-34
2660.0,1.129e-31
2665.0,1.121e-44
2670.0,0.0
2675.0,5.464999999999999e-44
2680.0,2.2870000000000002e-30
2685.0,2.1860000000000003e-31
2690.0,8.176e-31
2695.0,3.2079999999999996e-33
2700.0,9.343999999999999e-29
2705.0,2.65e-26
2710.0,2.11e-31
2715.0,2.664e-29
2720.0,0.0
2725.0,5.965e-27
2730.0,1.739e-24
2735.0,1.983e-26
2740.0,3.5830000000000003e-32
2745.0,4.62e-27
2750.0,2.589e-26
2755.0,4.165e-28
2760.0,6.241e-23
2765.0,2.9289999999999997e-29
2770.0,1.439e-26
2775.0,1.777e-23
2780.0,8.274e-21
2785.0,3.106e-20
2790.0,7.084e-18
2795.0,1.559e-18
2800.0,4.976e-15
2805.0,9.301e-17
2810.0,3.733e-13
2815.0,1.113e-13
2820.0,1.359e-15
2825.0,1.196e-11
2830.0,2.607e-10
2835.0,3.571e-15
2840.0,7.653e-12
2845.0,2.665e-09
2850.0,4.589e-11
2855.0,1.83e-11
2860.0,9.555e-10
2865.0,7.072e-09
2870.0,1.783e-10
2875.0,1.724e-08
2880.0,1.083e-08
2885.0,1.789e-08
2890.0,7.571e-09
2895.0,1.302e-07
2900.0,3.611e-08
2905.0,4.16e-09
2910.0,1.327e-07
2915.0,5.616e-08
2920.0,1.399e-07
2925.0,4.961e-08
2930.0,3.028e-07
2935.0,3.342e-07
2940.0,7.429e-08
2945.0,6.379e-08
2950.0,2.591e-07
2955.0,1.147e-07
2960.0,2.287e-07
2965.0,3.882e-07
2970.0,1.501e-08
2975.0,3.813e-08
2980.0,5.951e-08
2985.0,3.529e-07
2990.0,5.362e-07
2995.0,2.025e-07
3000.0,3.863e-07
3005.0,1.308e-07
3010.0,3.381e-07
3015.0,2.622e-07
3020.0,2.346e-08
3025.0,3.618e-07
3030.0,2.849e-07
3035.0,1.077e-07
3040.0,8.412e-08
3045.0,1.816e-07
3050.0,4.081e-08
3055.0,9.946e-09
3060.0,2.84e-07
3065.0,1.197e-07
3070.0,6.708e-08
3075.0,2.653e-07
3080.0,1.534e-07
3085.0,6.755e-08
3090.0,9.218e-08
3095.0,2.248e-08
3100.0,1.85e-07
3105.0,3.428e-08
3110.0,2.876e-08
3115.0,8.687e-08
3120.0,4.328e-07
3125.0,1.252e-07
3130.0,2.505e-07
3135.0,5.087e-07
3140.0,1.331e-07
3145.0,1.305e-07
3150.0,2.785e-07
3155.0,2.337e-07
3160.0,3.917e-07
3165.0,6.195e-07
3170.0,5.482e-07
3175.0,3.836e-07
3180.0,4.537e-07
3185.0,3.175e-07
3190.0,1.641e-07
3195.0,9.122e-08
3200.0,1.261e-08
3205.0,8.235e-09
3210.0,3.412e-09
3215.0,1.402e-08
3220.0,4.982e-08
3225.0,5.601e-09
3230.0,9.356e-09
3235.0,2.734e-07
3240.0,1.232e-07
3245.0,2.275e-08
3250.0,8.546e-08
3255.0,3.768e-07
3260.0,3.627e-08
3265.0,7.936e-08
3270.0,3.704e-08
3275.0,2.291e-07
3280.0,9.612e-08
3285.0,4.291e-07
3290.0,3.216e-07
3295.0,3.803e-08
3300.0,5.678e-08
3305.0,1.328e-07
3310.0,1.264e-07
3315.0,1.748e-10
3320.0,1.103e-09
3325.0,1.062e-07
3330.0,1.607e-07
3335.0,3.174e-07
3340.0,1.14e-07
3345.0,1.108e-07
3350.0,2.801e-07
3355.0,1.119e-07
3360.0,1.722e-07
3365.0,2.434e-07
3370.0,1.169e-07
3375.0,2.855e-07
3380.0,1.538e-07
3385.0,2.442e-07
3390.0,3.224e-07
3395.0,3.113e-07
3400.0,4.211e-07
3405.0,1.27e-07
3410.0,2.238e-07
3415.0,2.178e-07
3420.0,4.365e-07
3425.0,3.12e-07
3430.0,2.628e-07
3435.0,3.751e-07
3440.0,2.399e-07
3445.0,3.582e-07
3450.0,3.5e-07
3455.0,2.488e-07
3460.0,3.985e-07
3465.0,2.95e-07
3470.0,3.856e-07
3475.0,3.35e-07
3480.0,3.431e-07
3485.0,3.732e-07
3490.0,3.113e-07
3495.0,3.753e-07
3500.0,3.623e-07
3505.0,3.57e-07
3510.0,3.616e-07
3515.0,3.456e-07
3520.0,3.695e-07
3525.0,3.438e-07
3530.0,3.337e-07
3535.0,2.729e-07
3540.0,2.583e-07
3545.0,2.742e-07
3550.0,3.092e-07
3555.0,2.589e-07
3560.0,3.167e-07
3565.0,3.161e-07
3570.0,2.369e-07
3575.0,2.454e-07
3580.0,2.959e-07
3585.0,2.579e-07
3590.0,2.69e-07
3595.0,2.746e-07
3600.0,2.939e-07
3605.0,2.934e-07
3610.0,2.653e-07
3615.0,2.65e-07
3620.0,3.313e-07
3625.0,2.829e-07
3630.0,2.749e-07
3635.0,2.83e-07
3640.0,3.196e-07
3645.0,2.871e-07
3650.0,2.723e-07
3655.0,2.978e-07
3660.0,2.947e-07
3665.0,2.711e-07
3670.0,2.023e-07
3675.0,1.137e-07
3680.0,2.105e-07
3685.0,2.427e-07
3690.0,2.506e-07
3695.0,2.615e-07
3700.0,2.836e-07
3705.0,2.782e-07
3710.0,2.367e-07
3715.0,2.321e-07
3720.0,2.659e-07
3725.0,2.734e-07
3730.0,2.317e-07
3735.0,2.091e-07
3740.0,2.152e-07
3745.0,2.551e-07
3750.0,2.282e-07
3755.0,2.196e-07
3760.0,2.154e-07
3765.0,2.062e-07
3770.0,2.22e-07
3775.0,2.185e-07
3780.0,2.325e-07
3785.0,2.099e-07
3790.0,1.815e-07
3795.0,2.106e-07
3800.0,2.39e-07
3805.0,2.219e-07
3810.0,1.929e-07
3815.0,1.786e-07
3820.0,2.296e-07
3825.0,2.233e-07
3830.0,2.264e-07
3835.0,1.738e-07
3840.0,2.084e-07
3845.0,2.019e-07
3850.0,2.026e-07
3855.0,1.923e-07
3860.0,1.774e-07
3865.0,1.783e-07
3870.0,1.587e-07
3875.0,1.42e-07
3880.0,1.36e-07
3885.0,1.41e-07
3890.0,1.427e-07
3895.0,1.581e-07
3900.0,1.692e-07
3905.0,1.679e-07
3910.0,1.474e-07
3915.0,1.426e-07
3920.0,1.421e-07
3925.0,1.387e-07
3930.0,1.436e-07
3935.0,1.502e-07
3940.0,1.517e-07
3945.0,1.541e-07
3950.0,1.564e-07
3955.0,1.576e-07
3960.0,1.588e-07
3965.0,1.595e-07
3970.0,1.571e-07
3975.0,1.518e-07
3980.0,1.489e-07
3985.0,1.489e-07
3990.0,1.462e-07
3995.0,1.422e-07
4000.0,1.355e-07
