interpolation:linear
wavelength,value
280.0,1.308e-21
280.5,4.1860000000000004e-20
281.0,2.224e-19
281.5,5.027e-19
282.0,9.846e-19
282.5,2.466e-18
283.0,7.795e-18
283.5,1.267e-17
284.0,2.049e-16
284.5,5.923e-16
285.0,1.207e-15
285.5,5.801e-15
286.0,2.315e-14
286.5,1.022e-13
287.0,2.899e-13
287.5,1.101e-12
288.0,3.297e-12
288.5,1.041e-11
289.0,2.85e-11
289.5,8.768e-11
290.0,2.46e-10
290.5,5.049e-10
291.0,1.09e-09
291.5,3.142e-09
292.0,6.391e-09
292.5,9.302e-09
293.0,2.085e-08
293.5,5.363e-08
294.0,8.692e-08
294.5,1.132e-07
295.0,1.971e-07
295.5,4.615e-07
296.0,8.322e-07
296.5,1.192e-06
297.0,1.648e-06
297.5,4.603e-06
298.0,7.561e-06
298.5,7.89e-06
299.0,1.813e-05
299.5,3.286e-05
300.0,3.832e-05
300.5,5.947e-05
301.0,0.0001233
301.5,0.0002302
302.0,0.0002171
302.5,0.0004262
303.0,0.0007711
303.5,0.0009787
304.0,0.0009321
304.5,0.001449
305.0,0.002333
305.5,0.002775
306.0,0.002721
306.5,0.003471
307.0,0.005454
307.5,0.007671
308.0,0.008157
308.5,0.009894
309.0,0.01005
309.5,0.01169
310.0,0.01183
310.5,0.0192
311.0,0.02424
311.5,0.02341
312.0,0.02382
312.5,0.02931
313.0,0.03194
313.5,0.03069
314.0,0.03895
314.5,0.03533
315.0,0.04651
315.5,0.03827
316.0,0.03406
316.5,0.04974
317.0,0.06153
317.5,0.06345
318.0,0.05004
318.5,0.0637
319.0,0.07649
319.5,0.06068
320.0,0.07282
320.5,0.09361
321.0,0.0855
321.5,0.08195
322.0,0.08441
322.5,0.07331
323.0,0.07424
323.5,0.09281
324.0,0.1083
324.5,0.1088
325.0,0.09253
325.5,0.1207
326.0,0.1478
326.5,0.149
327.0,0.1474
327.5,0.1413
328.0,0.1239
328.5,0.1317
329.0,0.1594
329.5,0.1812
330.0,0.1815
330.5,0.1432
331.0,0.1449
331.5,0.1479
332.0,0.1613
332.5,0.16
333.0,0.1585
333.5,0.1416
334.0,0.1444
334.5,0.1678
335.0,0.1583
335.5,0.1865
336.0,0.1287
336.5,0.1478
337.0,0.1203
337.5,0.1488
338.0,0.1462
338.5,0.1701
339.0,0.1673
339.5,0.1608
340.0,0.1865
340.5,0.1677
341.0,0.1642
341.5,0.1496
342.0,0.178
342.5,0.1659
343.0,0.1822
343.5,0.1714
344.0,0.1257
344.5,0.1277
345.0,0.1673
345.5,0.17
346.0,0.1438
346.5,0.1622
347.0,0.1738
347.5,0.1402
348.0,0.1589
348.5,0.1582
349.0,0.1462
349.5,0.1443
350.0,0.1778
350.5,0.1869
351.0,0.1666
351.5,0.1618
352.0,0.1729
352.5,0.1343
353.0,0.1685
353.5,0.1795
354.0,0.1856
354.5,0.1876
355.0,0.1864
355.5,0.1678
356.0,0.1749
356.5,0.1488
357.0,0.1226
357.5,0.1495
358.0,0.1181
358.5,0.1006
359.0,0.1402
359.5,0.1781
360.0,0.1881
360.5,0.1498
361.0,0.1361
361.5,0.1561
362.0,0.1346
362.5,0.1856
363.0,0.1661
363.5,0.1525
364.0,0.1859
364.5,0.1583
365.0,0.1607
365.5,0.201
366.0,0.2122
366.5,0.1987
367.0,0.1928
367.5,0.1994
368.0,0.1739
368.5,0.1749
369.0,0.1882
369.5,0.1999
370.0,0.2123
370.5,0.1642
371.0,0.1749
371.5,0.218
372.0,0.1442
372.5,0.1723
373.0,0.1747
373.5,0.1133
374.0,0.164
374.5,0.1353
375.0,0.1311
375.5,0.195
376.0,0.1611
376.5,0.1664
377.0,0.1755
377.5,0.2046
378.0,0.2211
378.5,0.2082
379.0,0.1711
379.5,0.1557
380.0,0.1613
380.5,0.1947
381.0,0.1944
381.5,0.1535
382.0,0.1358
382.5,0.1153
383.0,0.1064
383.5,0.1021
384.0,0.1122
384.5,0.1645
385.0,0.1626
385.5,0.1508
386.0,0.1287
386.5,0.1685
387.0,0.1395
387.5,0.1561
388.0,0.1436
388.5,0.1414
389.0,0.1521
389.5,0.1835
390.0,0.1835
390.5,0.1683
391.0,0.1973
391.5,0.2005
392.0,0.1683
392.5,0.1501
393.0,0.08322
393.5,0.06028
394.0,0.1222
394.5,0.1548
395.0,0.1883
395.5,0.1906
396.0,0.1646
396.5,0.09587
397.0,0.07168
397.5,0.1452
398.0,0.2026
398.5,0.2087
399.0,0.2252
399.5,0.2237
400.0,0.2314
401.0,0.2273
402.0,0.238
403.0,0.2244
404.0,0.2194
405.0,0.2177
406.0,0.2126
407.0,0.2076
408.0,0.214
409.0,0.2275
410.0,0.1974
411.0,0.2122
412.0,0.2263
413.0,0.2191
414.0,0.2201
415.0,0.2191
416.0,0.2212
417.0,0.2141
418.0,0.2086
419.0,0.2097
420.0,0.2072
421.0,0.2151
422.0,0.2029
423.0,0.1966
424.0,0.2063
425.0,0.2044
426.0,0.1976
427.0,0.1925
428.0,0.1862
429.0,0.1751
430.0,0.1522
431.0,0.1496
432.0,0.1917
433.0,0.1912
434.0,0.1762
435.0,0.1827
436.0,0.2044
437.0,0.2003
438.0,0.181
439.0,0.1858
440.0,0.1902
441.0,0.1955
442.0,0.208
443.0,0.2011
444.0,0.204
445.0,0.1982
446.0,0.1878
447.0,0.2016
448.0,0.2031
449.0,0.2023
450.0,0.2063
451.0,0.2123
452.0,0.203
453.0,0.1896
454.0,0.1966
455.0,0.1962
456.0,0.1993
457.0,0.2009
458.0,0.1924
459.0,0.1899
460.0,0.1888
461.0,0.1916
462.0,0.1918
463.0,0.1892
464.0,0.185
465.0,0.1814
466.0,0.1819
467.0,0.1772
468.0,0.1778
469.0,0.1772
470.0,0.1703
471.0,0.1689
472.0,0.1767
473.0,0.1731
474.0,0.172
475.0,0.1721
476.0,0.1656
477.0,0.1646
478.0,0.1676
479.0,0.1651
480.0,0.164
481.0,0.1655
482.0,0.1651
483.0,0.162
484.0,0.1576
485.0,0.1492
486.0,0.1295
487.0,0.1348
488.0,0.1468
489.0,0.1461
490.0,0.1525
491.0,0.1487
492.0,0.1394
493.0,0.1429
494.0,0.1432
495.0,0.1434
496.0,0.1432
497.0,0.1442
498.0,0.1363
499.0,0.1368
500.0,0.1316
501.0,0.128
502.0,0.125
503.0,0.1288
504.0,0.1244
505.0,0.1279
506.0,0.1311
507.0,0.1239
508.0,0.1193
509.0,0.1219
510.0,0.1205
511.0,0.1229
512.0,0.1233
513.0,0.1158
514.0,0.1142
515.0,0.1122
516.0,0.1111
517.0,0.09798
518.0,0.1023
519.0,0.1065
520.0,0.1095
521.0,0.1096
522.0,0.1089
523.0,0.1061
524.0,0.109
525.0,0.1094
526.0,0.1036
527.0,0.09677
528.0,0.1014
529.0,0.1061
530.0,0.1038
531.0,0.1045
532.0,0.1001
533.0,0.09652
534.0,0.09871
535.0,0.1002
536.0,0.1005
537.0,0.09587
538.0,0.09689
539.0,0.09544
540.0,0.09088
541.0,0.09079
542.0,0.09289
543.0,0.09122
544.0,0.09219
545.0,0.09132
546.0,0.09106
547.0,0.09037
548.0,0.08866
549.0,0.08834
550.0,0.08878
551.0,0.08709
552.0,0.08707
553.0,0.08491
554.0,0.08633
555.0,0.08588
556.0,0.08413
557.0,0.08088
558.0,0.07961
559.0,0.07749
560.0,0.07782
561.0,0.07819
562.0,0.07698
563.0,0.07846
564.0,0.07576
565.0,0.07456
566.0,0.07292
567.0,0.07373
568.0,0.07251
569.0,0.0702
570.0,0.06971
571.0,0.06882
572.0,0.06991
573.0,0.0702
574.0,0.06955
575.0,0.06783
576.0,0.06681
577.0,0.06715
578.0,0.0658
579.0,0.06574
580.0,0.06669
581.0,0.0667
582.0,0.06761
583.0,0.06745
584.0,0.06771
585.0,0.0657
586.0,0.06393
587.0,0.06488
588.0,0.06283
589.0,0.05513
590.0,0.05732
591.0,0.0604
592.0,0.05916
593.0,0.05969
594.0,0.0588
595.0,0.05688
596.0,0.05888
597.0,0.0578
598.0,0.05727
599.0,0.05693
600.0,0.05668
601.0,0.05589
602.0,0.05518
603.0,0.05577
604.0,0.05638
605.0,0.05581
606.0,0.05532
607.0,0.05563
608.0,0.05475
609.0,0.0546
610.0,0.05398
611.0,0.05403
612.0,0.05364
613.0,0.05272
614.0,0.05176
615.0,0.05266
616.0,0.0507
617.0,0.05037
618.0,0.05207
619.0,0.0513
620.0,0.05137
621.0,0.05116
622.0,0.05029
623.0,0.04925
624.0,0.04816
625.0,0.04784
626.0,0.04832
627.0,0.04859
628.0,0.04473
629.0,0.04681
630.0,0.04549
631.0,0.04642
632.0,0.04567
633.0,0.04692
634.0,0.0463
635.0,0.04681
636.0,0.04599
637.0,0.04655
638.0,0.04682
639.0,0.04609
640.0,0.04545
641.0,0.04521
642.0,0.04483
643.0,0.04525
644.0,0.04492
645.0,0.04475
646.0,0.04344
647.0,0.04262
648.0,0.04242
649.0,0.0414
650.0,0.04153
651.0,0.04315
652.0,0.04098
653.0,0.04217
654.0,0.04152
655.0,0.03969
656.0,0.03506
657.0,0.03586
658.0,0.04006
659.0,0.04018
660.0,0.04015
661.0,0.04024
662.0,0.04012
663.0,0.03917
664.0,0.03949
665.0,0.03936
666.0,0.03921
667.0,0.03902
668.0,0.03888
669.0,0.0393
670.0,0.03894
671.0,0.03877
672.0,0.0383
673.0,0.03874
674.0,0.03841
675.0,0.03788
676.0,0.03797
677.0,0.03744
678.0,0.03739
679.0,0.03663
680.0,0.03675
681.0,0.03634
682.0,0.03612
683.0,0.03588
684.0,0.03552
685.0,0.03565
686.0,0.03527
687.0,0.02196
688.0,0.02619
689.0,0.02618
690.0,0.02754
691.0,0.02911
692.0,0.03025
693.0,0.02984
694.0,0.02941
695.0,0.03067
696.0,0.03055
697.0,0.0326
698.0,0.03194
699.0,0.03085
700.0,0.03032
701.0,0.02984
702.0,0.02998
703.0,0.02989
704.0,0.0308
705.0,0.03069
706.0,0.03056
707.0,0.03046
708.0,0.03038
709.0,0.03032
710.0,0.03014
711.0,0.03002
712.0,0.02985
713.0,0.02938
714.0,0.02933
715.0,0.0282
716.0,0.02807
717.0,0.02366
718.0,0.02145
719.0,0.01939
720.0,0.02028
721.0,0.02263
722.0,0.02629
723.0,0.02408
724.0,0.02129
725.0,0.02081
726.0,0.0218
727.0,0.02205
728.0,0.02048
729.0,0.02132
730.0,0.02254
731.0,0.02136
732.0,0.02297
733.0,0.02442
734.0,0.02494
735.0,0.02428
736.0,0.02414
737.0,0.02411
738.0,0.0245
739.0,0.02389
740.0,0.02443
741.0,0.0241
742.0,0.02402
743.0,0.02451
744.0,0.02432
745.0,0.02422
746.0,0.02421
747.0,0.02415
748.0,0.02398
749.0,0.02359
750.0,0.02347
751.0,0.02313
752.0,0.02313
753.0,0.02314
754.0,0.02308
755.0,0.02284
756.0,0.02274
757.0,0.02267
758.0,0.02228
759.0,0.02165
760.0,0.002985
761.0,0.001534
762.0,0.00987
763.0,0.004593
764.0,0.007102
765.0,0.009719
766.0,0.01228
767.0,0.01591
768.0,0.01874
769.0,0.01915
770.0,0.01984
771.0,0.01997
772.0,0.01993
773.0,0.01997
774.0,0.01977
775.0,0.01953
776.0,0.01967
777.0,0.01932
778.0,0.0191
779.0,0.01902
780.0,0.01882
781.0,0.01876
782.0,0.01879
783.0,0.01839
784.0,0.0184
785.0,0.01818
786.0,0.01829
787.0,0.01785
788.0,0.01752
789.0,0.01742
790.0,0.0168
791.0,0.01694
792.0,0.01675
793.0,0.01639
794.0,0.01668
795.0,0.01686
796.0,0.01616
797.0,0.01612
798.0,0.01661
799.0,0.01641
800.0,0.01602
801.0,0.01588
802.0,0.01576
803.0,0.01556
804.0,0.01552
805.0,0.01542
806.0,0.01582
807.0,0.01555
808.0,0.01549
809.0,0.0151
810.0,0.01487
811.0,0.01479
812.0,0.01422
813.0,0.01381
814.0,0.01185
815.0,0.01172
816.0,0.01075
817.0,0.01093
818.0,0.01044
819.0,0.01184
820.0,0.01101
821.0,0.01315
822.0,0.01266
823.0,0.008068
824.0,0.01211
825.0,0.01267
826.0,0.01204
827.0,0.01277
828.0,0.01049
829.0,0.01183
830.0,0.0116
831.0,0.0116
832.0,0.01114
833.0,0.01199
834.0,0.01143
835.0,0.01269
836.0,0.01198
837.0,0.01262
838.0,0.01213
839.0,0.01232
840.0,0.01255
841.0,0.0123
842.0,0.0123
843.0,0.01227
844.0,0.01202
845.0,0.0124
846.0,0.01229
847.0,0.01202
848.0,0.01188
849.0,0.01149
850.0,0.01096
851.0,0.01153
852.0,0.0114
853.0,0.01093
854.0,0.009385
855.0,0.01028
856.0,0.01118
857.0,0.0114
858.0,0.01127
859.0,0.01124
860.0,0.01121
861.0,0.0111
862.0,0.01124
863.0,0.01146
864.0,0.01085
865.0,0.01071
866.0,0.009589
867.0,0.009966
868.0,0.0108
869.0,0.01053
870.0,0.01079
871.0,0.0106
872.0,0.01052
873.0,0.01045
874.0,0.01028
875.0,0.01003
876.0,0.01009
877.0,0.01015
878.0,0.01021
879.0,0.01001
880.0,0.009756
881.0,0.009564
882.0,0.009731
883.0,0.009728
884.0,0.009637
885.0,0.009665
886.0,0.00915
887.0,0.009229
888.0,0.009313
889.0,0.0094
890.0,0.009254
891.0,0.009215
892.0,0.008885
893.0,0.008526
894.0,0.008116
895.0,0.007542
896.0,0.006988
897.0,0.00583
898.0,0.006427
899.0,0.00466
900.0,0.006595
901.0,0.004911
902.0,0.005911
903.0,0.005906
904.0,0.007726
905.0,0.007381
906.0,0.006827
907.0,0.005308
908.0,0.005429
909.0,0.005962
910.0,0.005106
911.0,0.005501
912.0,0.00577
913.0,0.005118
914.0,0.005063
915.0,0.005531
916.0,0.004549
917.0,0.005998
918.0,0.004646
919.0,0.006078
920.0,0.006162
921.0,0.006449
922.0,0.00562
923.0,0.006182
924.0,0.005724
925.0,0.005559
926.0,0.005614
927.0,0.006371
928.0,0.004369
929.0,0.003911
930.0,0.00294
931.0,0.002761
932.0,0.001888
933.0,0.001488
934.0,0.0007586
935.0,0.001524
936.0,0.0009007
937.0,0.0009082
938.0,0.001134
939.0,0.002584
940.0,0.003189
941.0,0.002301
942.0,0.002707
943.0,0.001674
944.0,0.001786
945.0,0.002339
946.0,0.001089
947.0,0.002322
948.0,0.001644
949.0,0.003222
950.0,0.0007594
951.0,0.003152
952.0,0.001542
953.0,0.002059
954.0,0.00261
955.0,0.002082
956.0,0.002018
957.0,0.001514
958.0,0.00299
959.0,0.002267
960.0,0.002568
961.0,0.002938
962.0,0.00275
963.0,0.003243
964.0,0.002918
965.0,0.003207
966.0,0.003192
967.0,0.003157
968.0,0.004501
969.0,0.004703
970.0,0.004235
971.0,0.004981
972.0,0.0047
973.0,0.003951
974.0,0.003707
975.0,0.003864
976.0,0.003606
977.0,0.004219
978.0,0.003941
979.0,0.004158
980.0,0.003847
981.0,0.004766
982.0,0.004491
983.0,0.004263
984.0,0.004908
985.0,0.004426
986.0,0.004987
987.0,0.00484
988.0,0.004811
989.0,0.004932
990.0,0.004748
991.0,0.004899
992.0,0.004913
993.0,0.004756
994.0,0.00488
995.0,0.004861
996.0,0.004816
997.0,0.004807
998.0,0.004765
999.0,0.004732
1000.0,0.004674
1001.0,0.004723
1002.0,0.004544
1003.0,0.004602
1004.0,0.004464
1005.0,0.004295
1006.0,0.004439
1007.0,0.004518
1008.0,0.004471
1009.0,0.004425
1010.0,0.004386
1011.0,0.004429
1012.0,0.004367
1013.0,0.004387
1014.0,0.004341
1015.0,0.004295
1016.0,0.004258
1017.0,0.004251
1018.0,0.004222
1019.0,0.004104
1020.0,0.004165
1021.0,0.004145
1022.0,0.004093
1023.0,0.004121
1024.0,0.004041
1025.0,0.004092
1026.0,0.004056
1027.0,0.004031
1028.0,0.004007
1029.0,0.003945
1030.0,0.003961
1031.0,0.003928
1032.0,0.003903
1033.0,0.003829
1034.0,0.003815
1035.0,0.003812
1036.0,0.003816
1037.0,0.00374
1038.0,0.003743
1039.0,0.003727
1040.0,0.003697
1041.0,0.003697
1042.0,0.003657
1043.0,0.003632
1044.0,0.003631
1045.0,0.003568
1046.0,0.003514
1047.0,0.003532
1048.0,0.003538
1049.0,0.003512
1050.0,0.003482
1051.0,0.003463
1052.0,0.003436
1053.0,0.003395
1054.0,0.00339
1055.0,0.003377
1056.0,0.003351
1057.0,0.003327
1058.0,0.003233
1059.0,0.003224
1060.0,0.003206
1061.0,0.003189
1062.0,0.003193
1063.0,0.003149
1064.0,0.003176
1065.0,0.003138
1066.0,0.003067
1067.0,0.003094
1068.0,0.003013
1069.0,0.00291
1070.0,0.002995
1071.0,0.003039
1072.0,0.002987
1073.0,0.002935
1074.0,0.00301
1075.0,0.002823
1076.0,0.002984
1077.0,0.002905
1078.0,0.002835
1079.0,0.002908
1080.0,0.002825
1081.0,0.002718
1082.0,0.002773
1083.0,0.002775
1084.0,0.002672
1085.0,0.002787
1086.0,0.002486
1087.0,0.002595
1088.0,0.002717
1089.0,0.002601
1090.0,0.002514
1091.0,0.002672
1092.0,0.002661
1093.0,0.002173
1094.0,0.002409
1095.0,0.002264
1096.0,0.002138
1097.0,0.002556
1098.0,0.002085
1099.0,0.002178
1100.0,0.001982
1101.0,0.002011
1102.0,0.001897
1103.0,0.001859
1104.0,0.001858
1105.0,0.002075
1106.0,0.001483
1107.0,0.001935
1108.0,0.001572
1109.0,0.001574
1110.0,0.001891
1111.0,0.001184
1112.0,0.001548
1113.0,0.0009009
1114.0,0.001017
1115.0,0.0008218
1116.0,0.000626
1117.0,0.000203
1118.0,0.0006862
1119.0,0.0003108
1120.0,0.0003956
1121.0,0.0005408
1122.0,0.0002064
1123.0,0.0003511
1124.0,0.0002918
1125.0,0.0003898
1126.0,0.0001212
1127.0,0.0004409
1128.0,0.000246
1129.0,0.0002622
1130.0,0.0001658
1131.0,0.0009034
1132.0,0.0006827
1133.0,0.0004024
1134.0,9.065e-05
1135.0,3.31e-05
1136.0,0.0003238
1137.0,0.0008634
1138.0,0.0005822
1139.0,0.0009321
1140.0,0.0007497
1141.0,0.0005452
1142.0,0.0006386
1143.0,0.0009521
1144.0,0.0002889
1145.0,0.0003715
1146.0,0.0004013
1147.0,0.0001263
1148.0,0.0007951
1149.0,0.0006098
1150.0,0.0003071
1151.0,0.0005518
1152.0,0.0007012
1153.0,0.0006854
1154.0,0.0003477
1155.0,0.0009258
1156.0,0.000815
1157.0,0.0009341
1158.0,0.0009195
1159.0,0.001008
1160.0,0.0008345
1161.0,0.001071
1162.0,0.001068
1163.0,0.001531
1164.0,0.00127
1165.0,0.001174
1166.0,0.001169
1167.0,0.001288
1168.0,0.001298
1169.0,0.001336
1170.0,0.00147
1171.0,0.001421
1172.0,0.001451
1173.0,0.001451
1174.0,0.000967
1175.0,0.001413
1176.0,0.001578
1177.0,0.001493
1178.0,0.001059
1179.0,0.001576
1180.0,0.001365
1181.0,0.001413
1182.0,0.0009085
1183.0,0.001389
1184.0,0.001274
1185.0,0.001213
1186.0,0.001486
1187.0,0.001396
1188.0,0.0009097
1189.0,0.001284
1190.0,0.001431
1191.0,0.001334
1192.0,0.001445
1193.0,0.001368
1194.0,0.001415
1195.0,0.00132
1196.0,0.001257
1197.0,0.001414
1198.0,0.001271
1199.0,0.001043
1200.0,0.001325
1201.0,0.001262
1202.0,0.001254
1203.0,0.001245
1204.0,0.001055
1205.0,0.001282
1206.0,0.001441
1207.0,0.001233
1208.0,0.00122
1209.0,0.001242
1210.0,0.0013
1211.0,0.00122
1212.0,0.001192
1213.0,0.001358
1214.0,0.00122
1215.0,0.001189
1216.0,0.00134
1217.0,0.001294
1218.0,0.00132
1219.0,0.001297
1220.0,0.001314
1221.0,0.001327
1222.0,0.001282
1223.0,0.001264
1224.0,0.001248
1225.0,0.001301
1226.0,0.001309
1227.0,0.001187
1228.0,0.00131
1229.0,0.001297
1230.0,0.001268
1231.0,0.001309
1232.0,0.001297
1233.0,0.001236
1234.0,0.001298
1235.0,0.001284
1236.0,0.001291
1237.0,0.001264
1238.0,0.001278
1239.0,0.001257
1240.0,0.001259
1241.0,0.001246
1242.0,0.001241
1243.0,0.001227
1244.0,0.001231
1245.0,0.001233
1246.0,0.001222
1247.0,0.001212
1248.0,0.001206
1249.0,0.001207
1250.0,0.001195
1251.0,0.001174
1252.0,0.001173
1253.0,0.001156
1254.0,0.001138
1255.0,0.00116
1256.0,0.001116
1257.0,0.001105
1258.0,0.001128
1259.0,0.001073
1260.0,0.001076
1261.0,0.0009997
1262.0,0.0009601
1263.0,0.0009588
1264.0,0.0008674
1265.0,0.0009475
1266.0,0.0009001
1267.0,0.0009192
1268.0,0.0008593
1269.0,0.0004798
1270.0,0.000906
1271.0,0.0009705
1272.0,0.0009722
1273.0,0.0009573
1274.0,0.0009592
1275.0,0.0009726
1276.0,0.0009815
1277.0,0.0009873
1278.0,0.001009
1279.0,0.000996
1280.0,0.0009805
1281.0,0.0009351
1282.0,0.0009023
1283.0,0.0009679
1284.0,0.000987
1285.0,0.0009911
1286.0,0.001004
1287.0,0.0009807
1288.0,0.0009784
1289.0,0.0009366
1290.0,0.0009642
1291.0,0.0009758
1292.0,0.0008987
1293.0,0.0009467
1294.0,0.0009361
1295.0,0.0009258
1296.0,0.0008713
1297.0,0.0008131
1298.0,0.0008882
1299.0,0.0009316
1300.0,0.0007575
1301.0,0.0007844
1302.0,0.0008755
1303.0,0.0007422
1304.0,0.000609
1305.0,0.0008461
1306.0,0.0008431
1307.0,0.0006206
1308.0,0.0007328
1309.0,0.0008273
1310.0,0.0006015
1311.0,0.0006907
1312.0,0.0006687
1313.0,0.0006494
1314.0,0.0005667
1315.0,0.0005577
1316.0,0.0006678
1317.0,0.0006241
1318.0,0.0006884
1319.0,0.0005088
1320.0,0.0004909
1321.0,0.0005859
1322.0,0.0005892
1323.0,0.0004188
1324.0,0.0004905
1325.0,0.0006382
1326.0,0.0005302
1327.0,0.0004996
1328.0,0.0004192
1329.0,0.0002987
1330.0,0.0004021
1331.0,0.0002235
1332.0,0.0002326
1333.0,0.0003353
1334.0,0.0002805
1335.0,0.0004024
1336.0,0.0003051
1337.0,0.0002642
1338.0,0.0002875
1339.0,0.0002864
1340.0,0.0002778
1341.0,0.0002665
1342.0,0.0002809
1343.0,0.0001772
1344.0,0.0001019
1345.0,0.0001507
1346.0,6.912e-05
1347.0,6.979e-05
1348.0,4.124e-06
1349.0,1.509e-05
1350.0,1.57e-05
1351.0,3.691e-06
1352.0,9.838e-07
1353.0,4.988e-08
1354.0,1.716e-07
1355.0,1.38e-09
1356.0,2.415e-08
1357.0,3.67e-08
1358.0,1.62e-09
1359.0,2.04e-10
1360.0,7.374e-10
1361.0,8.248e-13
1362.0,2.256e-15
1363.0,9.914e-10
1364.0,4.093e-10
1365.0,7.877e-16
1366.0,4.296e-09
1367.0,1.754e-09
1368.0,6.082e-18
1369.0,1.508e-10
1370.0,7.427e-11
1371.0,4.21e-12
1372.0,9.511e-10
1373.0,1.917e-08
1374.0,8.894e-08
1375.0,1.613e-07
1376.0,1.448e-07
1377.0,6.608e-08
1378.0,6.476e-07
1379.0,2.76e-08
1380.0,3.966e-08
1381.0,1.033e-09
1382.0,8.335e-10
1383.0,1.246e-11
1384.0,1.634e-10
1385.0,7.812e-10
1386.0,7.348e-10
1387.0,8.893e-08
1388.0,1.748e-09
1389.0,3.006e-07
1390.0,2.58e-07
1391.0,1.715e-07
1392.0,1.11e-08
1393.0,5.886e-08
1394.0,3.032e-08
1395.0,2.221e-10
1396.0,1.073e-12
1397.0,2.317e-08
1398.0,6.868e-07
1399.0,4.342e-07
1400.0,4.59e-13
1401.0,1.904e-12
1402.0,1.209e-06
1403.0,1.514e-06
1404.0,4.583e-07
1405.0,1.052e-10
1406.0,1.186e-06
1407.0,1.042e-07
1408.0,9.646e-07
1409.0,3.206e-07
1410.0,2.568e-07
1411.0,1.301e-06
1412.0,1.76e-06
1413.0,1.897e-05
1414.0,2.004e-07
1415.0,9.562e-08
1416.0,3.226e-05
1417.0,9.141e-06
1418.0,1.034e-05
1419.0,1.561e-06
1420.0,6.242e-06
1421.0,6.749e-06
1422.0,4.189e-05
1423.0,7.657e-06
1424.0,1.459e-05
1425.0,2.146e-05
1426.0,2.483e-05
1427.0,4.78e-05
1428.0,3.064e-06
1429.0,3.449e-05
1430.0,6.176e-05
1431.0,6.849e-05
1432.0,2.376e-06
1433.0,4.166e-05
1434.0,2.032e-05
1435.0,1.943e-05
1436.0,3.959e-05
1437.0,2.997e-05
1438.0,1.197e-05
1439.0,5.482e-05
1440.0,4.047e-05
1441.0,2.962e-05
1442.0,3.293e-05
1443.0,4.285e-05
1444.0,6.104e-05
1445.0,4.576e-05
1446.0,1.96e-05
1447.0,3.144e-05
1448.0,0.0001235
1449.0,0.0001043
1450.0,2.296e-05
1451.0,8.786e-06
1452.0,5.873e-05
1453.0,7.901e-05
1454.0,0.0001486
1455.0,6.345e-05
1456.0,8.59e-05
1457.0,0.0001214
1458.0,0.0001492
1459.0,0.0001784
1460.0,8.534e-05
1461.0,8.729e-05
1462.0,0.0001356
1463.0,3.859e-05
1464.0,0.0001663
1465.0,9.473e-05
1466.0,5.948e-05
1467.0,2.916e-05
1468.0,7.154e-05
1469.0,9.071e-05
1470.0,4.08e-05
1471.0,1.391e-05
1472.0,3.869e-05
1473.0,6.25e-05
1474.0,9.701e-05
1475.0,0.0002018
1476.0,6.251e-05
1477.0,6.221e-05
1478.0,5.845e-05
1479.0,0.000121
1480.0,5.278e-05
1481.0,0.0001137
1482.0,5.196e-05
1483.0,0.0001531
1484.0,0.000143
1485.0,0.000124
1486.0,0.0001206
1487.0,4.981e-05
1488.0,9.498e-05
1489.0,0.0002057
1490.0,0.0001884
1491.0,0.0002188
1492.0,0.0001712
1493.0,0.0001923
1494.0,0.0002226
1495.0,0.0001938
1496.0,0.0001791
1497.0,0.0002621
1498.0,0.0002045
1499.0,0.0002448
1500.0,0.0002898
1501.0,0.0003062
1502.0,0.0002527
1503.0,0.0002073
1504.0,0.0001598
1505.0,0.0001983
1506.0,0.0003044
1507.0,0.0002895
1508.0,0.0002739
1509.0,0.0001978
1510.0,0.0003142
1511.0,0.0003009
1512.0,0.0002985
1513.0,0.0002679
1514.0,0.0002465
1515.0,0.0003056
1516.0,0.0002898
1517.0,0.0002807
1518.0,0.0002793
1519.0,0.0002711
1520.0,0.0002953
1521.0,0.0003192
1522.0,0.0002996
1523.0,0.0003226
1524.0,0.0003106
1525.0,0.0002934
1526.0,0.0002978
1527.0,0.0002944
1528.0,0.0003168
1529.0,0.0002987
1530.0,0.000292
1531.0,0.0002999
1532.0,0.0003135
1533.0,0.0003132
1534.0,0.0003066
1535.0,0.0003035
1536.0,0.0003092
1537.0,0.0003012
1538.0,0.0003045
1539.0,0.0002982
1540.0,0.000299
1541.0,0.0003002
1542.0,0.0002957
1543.0,0.0003008
1544.0,0.000296
1545.0,0.0003017
1546.0,0.0002959
1547.0,0.0002914
1548.0,0.0002907
1549.0,0.0002928
1550.0,0.00029
1551.0,0.0002913
1552.0,0.000288
1553.0,0.000286
1554.0,0.0002827
1555.0,0.0002829
1556.0,0.0002819
1557.0,0.0002846
1558.0,0.0002824
1559.0,0.0002799
1560.0,0.0002812
1561.0,0.0002825
1562.0,0.0002781
1563.0,0.0002754
1564.0,0.0002759
1565.0,0.000276
1566.0,0.0002716
1567.0,0.0002716
1568.0,0.0002681
1569.0,0.0002693
1570.0,0.0002712
1571.0,0.0002727
1572.0,0.0002704
1573.0,0.0002679
1574.0,0.0002578
1575.0,0.000254
1576.0,0.0002493
1577.0,0.0002423
1578.0,0.0002537
1579.0,0.0002552
1580.0,0.000257
1581.0,0.0002526
1582.0,0.000247
1583.0,0.0002475
1584.0,0.0002519
1585.0,0.0002541
1586.0,0.0002504
1587.0,0.0002458
1588.0,0.0002386
1589.0,0.0002307
1590.0,0.0002353
1591.0,0.0002406
1592.0,0.0002469
1593.0,0.0002504
1594.0,0.0002492
1595.0,0.0002455
1596.0,0.0002377
1597.0,0.000243
1598.0,0.000246
1599.0,0.0002427
1600.0,0.0002407
1601.0,0.0002366
1602.0,0.0002366
1603.0,0.0002386
1604.0,0.0002362
1605.0,0.0002355
1606.0,0.0002322
1607.0,0.0002337
1608.0,0.0002328
1609.0,0.0002262
1610.0,0.000221
1611.0,0.0002243
1612.0,0.0002265
1613.0,0.0002262
1614.0,0.0002257
1615.0,0.0002202
1616.0,0.0002163
1617.0,0.0002199
1618.0,0.0002233
1619.0,0.0002184
1620.0,0.0002135
1621.0,0.0002153
1622.0,0.0002182
1623.0,0.0002208
1624.0,0.0002176
1625.0,0.0002162
1626.0,0.0002162
1627.0,0.0002174
1628.0,0.0002162
1629.0,0.0002138
1630.0,0.000212
1631.0,0.0002101
1632.0,0.0002092
1633.0,0.0002019
1634.0,0.0002065
1635.0,0.0002025
1636.0,0.0002008
1637.0,0.0001983
1638.0,0.0001852
1639.0,0.000193
1640.0,0.000183
1641.0,0.0001905
1642.0,0.0001941
1643.0,0.000181
1644.0,0.0001932
1645.0,0.0001862
1646.0,0.0001804
1647.0,0.0001948
1648.0,0.000179
1649.0,0.0001888
1650.0,0.0001899
1651.0,0.0001736
1652.0,0.0001868
1653.0,0.0001883
1654.0,0.0001763
1655.0,0.0001874
1656.0,0.0001832
1657.0,0.0001844
1658.0,0.0001868
1659.0,0.0001848
1660.0,0.000186
1661.0,0.0001844
1662.0,0.0001783
1663.0,0.0001828
1664.0,0.0001805
1665.0,0.0001686
1666.0,0.000133
1667.0,0.0001661
1668.0,0.0001732
1669.0,0.0001738
1670.0,0.0001768
1671.0,0.000171
1672.0,0.0001687
1673.0,0.0001724
1674.0,0.0001676
1675.0,0.0001647
1676.0,0.0001657
1677.0,0.0001648
1678.0,0.000159
1679.0,0.0001631
1680.0,0.0001559
1681.0,0.0001502
1682.0,0.000159
1683.0,0.000162
1684.0,0.0001473
1685.0,0.000163
1686.0,0.0001621
1687.0,0.0001546
1688.0,0.0001603
1689.0,0.0001581
1690.0,0.0001569
1691.0,0.0001404
1692.0,0.0001553
1693.0,0.00016
1694.0,0.0001527
1695.0,0.0001573
1696.0,0.000157
1697.0,0.0001279
1698.0,0.0001547
1699.0,0.0001521
1700.0,0.0001471
1702.0,0.0001497
1705.0,0.0001434
1710.0,0.0001336
1715.0,0.0001324
1720.0,0.0001296
1725.0,0.0001185
1730.0,0.0001159
1735.0,0.0001068
1740.0,0.000107
1745.0,9.848e-05
1750.0,0.0001052
1755.0,9.456e-05
1760.0,9.85e-05
1765.0,7.73e-05
1770.0,8.251e-05
1775.0,6.322e-05
1780.0,5.237e-05
1785.0,3.732e-05
1790.0,4.365e-05
1795.0,1.925e-05
1800.0,1.304e-05
1805.0,4.809e-06
1810.0,3.096e-06
1815.0,8.634e-07
1820.0,2.134e-07
1825.0,2.789e-07
1830.0,6.742e-10
1835.0,1.021e-09
1840.0,5.956e-12
1845.0,6.368e-10
1850.0,2.874e-10
1855.0,2.747e-11
1860.0,1.574e-09
1865.0,2.194e-09
1870.0,1.201e-14
1875.0,2.169e-14
1880.0,1.156e-08
1885.0,6.159e-09
1890.0,3.381e-08
1895.0,1.961e-08
1900.0,8.372e-11
1905.0,5.703e-11
1910.0,2.762e-09
1915.0,2.691e-09
1920.0,7.075e-08
1925.0,1.667e-07
1930.0,9.618e-08
1935.0,7.443e-07
1940.0,7.429e-07
1945.0,3.177e-06
1950.0,6.413e-06
1955.0,5.645e-06
1960.0,1.046e-05
1965.0,1.585e-05
1970.0,2.316e-05
1975.0,2.653e-05
1980.0,2.664e-05
1985.0,2.883e-05
1990.0,2.968e-05
1995.0,3.144e-05
2000.0,3.309e-05
2005.0,2.7e-05
2010.0,4.036e-05
2015.0,3.035e-05
2020.0,3.258e-05
2025.0,3.562e-05
2030.0,3.202e-05
2035.0,3.51e-05
2040.0,3.284e-05
2045.0,3.371e-05
2050.0,3.404e-05
2055.0,3.215e-05
2060.0,3.07e-05
2065.0,3.107e-05
2070.0,3.035e-05
2075.0,3.089e-05
2080.0,2.978e-05
2085.0,2.934e-05
2090.0,2.945e-05
2095.0,2.825e-05
2100.0,2.587e-05
2105.0,2.802e-05
2110.0,2.65e-05
2115.0,2.703e-05
2120.0,2.5e-05
2125.0,2.523e-05
2130.0,2.54e-05
2135.0,2.54e-05
2140.0,2.541e-05
2145.0,2.491e-05
2150.0,2.294e-05
2155.0,2.276e-05
2160.0,2.234e-05
2165.0,2.01e-05
2170.0,2.134e-05
2175.0,2.053e-05
2180.0,2.1e-05
2185.0,1.839e-05
2190.0,1.986e-05
2195.0,1.949e-05
2200.0,1.671e-05
2205.0,1.763e-05
2210.0,1.92e-05
2215.0,1.807e-05
2220.0,1.836e-05
2225.0,1.759e-05
2230.0,1.753e-05
2235.0,1.688e-05
2240.0,1.652e-05
2245.0,1.561e-05
2250.0,1.585e-05
2255.0,1.448e-05
2260.0,1.406e-05
2265.0,1.436e-05
2270.0,1.325e-05
2275.0,1.29e-05
2280.0,1.354e-05
2285.0,1.244e-05
2290.0,1.234e-05
2295.0,1.189e-05
2300.0,1.107e-05
2305.0,1.108e-05
2310.0,1.229e-05
2315.0,1.071e-05
2320.0,9.129e-06
2325.0,1.034e-05
2330.0,1.023e-05
2335.0,1.045e-05
2340.0,7.689e-06
2345.0,8.777e-06
2350.0,6.685e-06
2355.0,7.89e-06
2360.0,8.394e-06
2365.0,8.232e-06
2370.0,4.406e-06
2375.0,7.003e-06
2380.0,6.623e-06
2385.0,4.49e-06
2390.0,5.431e-06
2395.0,6.019e-06
2400.0,6.629e-06
2405.0,4.803e-06
2410.0,4.769e-06
2415.0,3.684e-06
2420.0,3.537e-06
2425.0,4.521e-06
2430.0,6.379e-06
2435.0,1.765e-06
2440.0,6.09e-06
2445.0,2.531e-06
2450.0,1.539e-06
2455.0,3.077e-06
2460.0,4.231e-06
2465.0,2.854e-06
2470.0,1.822e-06
2475.0,1.76e-06
2480.0,7.932e-07
2485.0,5.067e-07
2490.0,2.87e-07
2495.0,2.478e-07
2500.0,6.292e-07
2505.0,1.244e-07
2510.0,1.839e-07
2515.0,3.832e-08
2520.0,2.142e-08
2525.0,2.437e-09
2530.0,1.694e-11
2535.0,3.746e-12
2540.0,8.889e-12
2545.0,6.893e-16
2550.0,2.795e-18
2555.0,1.341e-14
2560.0,4.026e-16
2565.0,9.012e-20
2570.0,2.683e-24
2575.0,1.698e-34
2580.0,1.77e-28
2585.0,3.699e-42
2590.0,2.308e-38
2595.0,4.491e-40
2600.0,3.697e-35
2605.0,4.0860000000000004e-42
2610.0,1.407e-41
2615.0,1.4009999999999999e-45
2620.0,1.239e-35
2625.0,2.27e-35
2630.0,0.0
2635.0,1.182e-21
2640.0,2.5589999999999997e-22
2645.0,1.115e-24
2650.0,1.111e-25
2655.0,1.336e-34
2660.0,1.125e-31
2665.0,1.121e-44
2670.0,0.0
2675.0,5.464999999999999e-44
2680.0,2.28e-30
2685.0,2.179e-31
2690.0,8.151e-31
2695.0,3.1969999999999996e-33
2700.0,9.315e-29
2705.0,2.6410000000000004e-26
2710.0,2.103e-31
2715.0,2.656e-29
2720.0,0.0
2725.0,5.947e-27
2730.0,1.734e-24
2735.0,1.9770000000000002e-26
2740.0,3.571e-32
2745.0,4.605e-27
2750.0,2.5810000000000003e-26
2755.0,4.152000000000001e-28
2760.0,6.221e-23
2765.0,2.919e-29
2770.0,1.4350000000000002e-26
2775.0,1.771e-23
2780.0,8.246e-21
2785.0,3.0960000000000003e-20
2790.0,7.06e-18
2795.0,1.553e-18
2800.0,4.958e-15
2805.0,9.27e-17
2810.0,3.717e-13
2815.0,1.109e-13
2820.0,1.355e-15
2825.0,1.189e-11
2830.0,2.585e-10
2835.0,3.56e-15
2840.0,7.616e-12
2845.0,2.637e-09
2850.0,4.562e-11
2855.0,1.822e-11
2860.0,9.473e-10
2865.0,6.987e-09
2870.0,1.771e-10
2875.0,1.701e-08
2880.0,1.072e-08
2885.0,1.766e-08
2890.0,7.506e-09
2895.0,1.283e-07
2900.0,3.569e-08
2905.0,4.127e-09
2910.0,1.308e-07
2915.0,5.545e-08
2920.0,1.378e-07
2925.0,4.906e-08
2930.0,2.981e-07
2935.0,3.287e-07
2940.0,7.333e-08
2945.0,6.295e-08
2950.0,2.549e-07
2955.0,1.133e-07
2960.0,2.252e-07
2965.0,3.822e-07
2970.0,1.488e-08
2975.0,3.772e-08
2980.0,5.872e-08
2985.0,3.473e-07
2990.0,5.276e-07
2995.0,1.993e-07
3000.0,3.801e-07
3005.0,1.289e-07
3010.0,3.327e-07
3015.0,2.576e-07
3020.0,2.314e-08
3025.0,3.558e-07
3030.0,2.8e-07
3035.0,1.06e-07
3040.0,8.282e-08
3045.0,1.783e-07
3050.0,4.026e-08
3055.0,9.833e-09
3060.0,2.786e-07
3065.0,1.174e-07
3070.0,6.584e-08
3075.0,2.598e-07
3080.0,1.505e-07
3085.0,6.622e-08
3090.0,9.013e-08
3095.0,2.21e-08
3100.0,1.81e-07
3105.0,3.369e-08
3110.0,2.818e-08
3115.0,8.485e-08
3120.0,4.211e-07
3125.0,1.225e-07
3130.0,2.447e-07
3135.0,4.944e-07
3140.0,1.298e-07
3145.0,1.273e-07
3150.0,2.705e-07
3155.0,2.274e-07
3160.0,3.796e-07
3165.0,6.02e-07
3170.0,5.324e-07
3175.0,3.716e-07
3180.0,4.403e-07
3185.0,3.057e-07
3190.0,1.593e-07
3195.0,8.784e-08
3200.0,1.231e-08
3205.0,8.036e-09
3210.0,3.345e-09
3215.0,1.362e-08
3220.0,4.802e-08
3225.0,5.495e-09
3230.0,9.134e-09
3235.0,2.622e-07
3240.0,1.178e-07
3245.0,2.216e-08
3250.0,8.236e-08
3255.0,3.608e-07
3260.0,3.502e-08
3265.0,7.624e-08
3270.0,3.569e-08
3275.0,2.192e-07
3280.0,9.223e-08
3285.0,4.111e-07
3290.0,3.067e-07
3295.0,3.678e-08
3300.0,5.48e-08
3305.0,1.269e-07
3310.0,1.203e-07
3315.0,1.71e-10
3320.0,1.078e-09
3325.0,1.008e-07
3330.0,1.549e-07
3335.0,3.032e-07
3340.0,1.098e-07
3345.0,1.063e-07
3350.0,2.695e-07
3355.0,1.074e-07
3360.0,1.659e-07
3365.0,2.354e-07
3370.0,1.123e-07
3375.0,2.765e-07
3380.0,1.483e-07
3385.0,2.37e-07
3390.0,3.124e-07
3395.0,3.026e-07
3400.0,4.11e-07
3405.0,1.231e-07
3410.0,2.18e-07
3415.0,2.114e-07
3420.0,4.273e-07
3425.0,3.037e-07
3430.0,2.554e-07
3435.0,3.667e-07
3440.0,2.326e-07
3445.0,3.492e-07
3450.0,3.409e-07
3455.0,2.416e-07
3460.0,3.89e-07
3465.0,2.862e-07
3470.0,3.763e-07
3475.0,3.255e-07
3480.0,3.335e-07
3485.0,3.635e-07
3490.0,3.022e-07
3495.0,3.655e-07
3500.0,3.528e-07
3505.0,3.475e-07
3510.0,3.52e-07
3515.0,3.351e-07
3520.0,3.578e-07
3525.0,3.321e-07
3530.0,3.215e-07
3535.0,2.612e-07
3540.0,2.468e-07
3545.0,2.619e-07
3550.0,2.967e-07
3555.0,2.473e-07
3560.0,3.038e-07
3565.0,3.03e-07
3570.0,2.257e-07
3575.0,2.331e-07
3580.0,2.829e-07
3585.0,2.455e-07
3590.0,2.566e-07
3595.0,2.626e-07
3600.0,2.812e-07
3605.0,2.802e-07
3610.0,2.526e-07
3615.0,2.531e-07
3620.0,3.181e-07
3625.0,2.699e-07
3630.0,2.622e-07
3635.0,2.704e-07
3640.0,3.066e-07
3645.0,2.742e-07
3650.0,2.597e-07
3655.0,2.85e-07
3660.0,2.82e-07
3665.0,2.585e-07
3670.0,1.918e-07
3675.0,1.065e-07
3680.0,1.992e-07
3685.0,2.305e-07
3690.0,2.38e-07
3695.0,2.493e-07
3700.0,2.714e-07
3705.0,2.66e-07
3710.0,2.25e-07
3715.0,2.206e-07
3720.0,2.539e-07
3725.0,2.611e-07
3730.0,2.201e-07
3735.0,1.98e-07
3740.0,2.04e-07
3745.0,2.434e-07
3750.0,2.169e-07
3755.0,2.083e-07
3760.0,2.038e-07
3765.0,1.95e-07
3770.0,2.107e-07
3775.0,2.072e-07
3780.0,2.209e-07
3785.0,1.984e-07
3790.0,1.711e-07
3795.0,1.995e-07
3800.0,2.273e-07
3805.0,2.104e-07
3810.0,1.817e-07
3815.0,1.679e-07
3820.0,2.18e-07
3825.0,2.119e-07
3830.0,2.15e-07
3835.0,1.63e-07
3840.0,1.97e-07
3845.0,1.904e-07
3850.0,1.911e-07
3855.0,1.811e-07
3860.0,1.661e-07
3865.0,1.67e-07
3870.0,1.479e-07
3875.0,1.315e-07
3880.0,1.257e-07
3885.0,1.306e-07
3890.0,1.324e-07
3895.0,1.476e-07
3900.0,1.583e-07
3905.0,1.572e-07
3910.0,1.371e-07
3915.0,1.325e-07
3920.0,1.319e-07
3925.0,1.287e-07
3930.0,1.336e-07
3935.0,1.4e-07
3940.0,1.416e-07
3945.0,1.441e-07
3950.0,1.464e-07
3955.0,1.477e-07
3960.0,1.489e-07
3965.0,1.498e-07
3970.0,1.472e-07
3975.0,1.422e-07
3980.0,1.393e-07
3985.0,1.394e-07
3990.0,1.368e-07
3995.0,1.328e-07
4000.0,1.264e-07
