interpolation:linear
wavelength,value
280.0,1.4759999999999998e-23
280.5,5.160999999999999e-22
281.0,2.819e-21
281.5,9.507000000000001e-20
282.0,7.831e-19
282.5,3.038e-18
283.0,1.359e-17
283.5,2.288e-17
284.0,3.344e-16
284.5,9.589e-16
285.0,4.05e-16
285.5,2.262e-15
286.0,9.369e-15
286.5,4.449e-14
287.0,1.315e-13
287.5,5.256e-13
288.0,1.025e-11
288.5,1.814e-11
289.0,3.819e-11
289.5,1.003e-10
290.0,2.585e-10
290.5,5.016e-10
291.0,1.03e-09
291.5,2.847e-09
292.0,5.532e-09
292.5,7.298e-09
293.0,1.466e-08
293.5,3.325e-08
294.0,4.939e-08
294.5,9.879e-09
295.0,1.651e-08
295.5,2.636e-08
296.0,4.5e-08
296.5,5.599e-08
297.0,6.897e-08
297.5,1.613e-07
298.0,2.265e-07
298.5,2.087e-07
299.0,4.227e-07
299.5,6.052e-07
300.0,6.133e-07
300.5,8.174e-07
301.0,1.294e-06
301.5,1.831e-06
302.0,1.474e-06
302.5,1.544e-06
303.0,2.852e-06
303.5,3.641e-06
304.0,3.423e-06
304.5,5.18e-06
305.0,8.233e-06
305.5,9.865e-06
306.0,9.748e-06
306.5,1.261e-05
307.0,2.061e-05
307.5,3.061e-05
308.0,3.297e-05
308.5,4.143e-05
309.0,3.919e-05
309.5,4.156e-05
310.0,4.131e-05
310.5,6.688e-05
311.0,8.436e-05
311.5,8.18e-05
312.0,8.505e-05
312.5,0.0001078
313.0,0.00012
313.5,0.0001138
314.0,0.0001527
314.5,0.0001627
315.0,0.0002212
315.5,0.0001689
316.0,0.0001722
316.5,0.0002841
317.0,0.000352
317.5,0.0003519
318.0,0.0003025
318.5,0.0004558
319.0,0.0005986
319.5,0.0004151
320.0,0.0004898
320.5,0.0007514
321.0,0.0008117
321.5,0.0007938
322.0,0.0006875
322.5,0.0006044
323.0,0.0006886
323.5,0.001731
324.0,0.002104
324.5,0.001925
325.0,0.000888
325.5,0.001279
326.0,0.002989
326.5,0.003403
327.0,0.003235
327.5,0.002941
328.0,0.002195
328.5,0.002853
329.0,0.004088
329.5,0.004938
330.0,0.004737
330.5,0.00328
331.0,0.003201
331.5,0.003572
332.0,0.004568
332.5,0.004869
333.0,0.004651
333.5,0.003717
334.0,0.003729
334.5,0.004957
335.0,0.005043
335.5,0.006299
336.0,0.004358
336.5,0.00459
337.0,0.003552
337.5,0.004323
338.0,0.004731
338.5,0.005926
339.0,0.005914
339.5,0.00566
340.0,0.006146
340.5,0.005602
341.0,0.005873
341.5,0.005473
342.0,0.006568
342.5,0.006171
343.0,0.006727
343.5,0.006296
344.0,0.004324
344.5,0.004647
345.0,0.006258
345.5,0.006437
346.0,0.005498
346.5,0.006246
347.0,0.006655
347.5,0.005368
348.0,0.006179
348.5,0.006212
349.0,0.005778
349.5,0.005716
350.0,0.007078
350.5,0.007465
351.0,0.006639
351.5,0.006377
352.0,0.006903
352.5,0.005421
353.0,0.006855
353.5,0.007349
354.0,0.007646
354.5,0.007756
355.0,0.007717
355.5,0.006983
356.0,0.007317
356.5,0.00625
357.0,0.005164
357.5,0.006328
358.0,0.00502
358.5,0.004293
359.0,0.006
359.5,0.007623
360.0,0.008091
360.5,0.006478
361.0,0.005915
361.5,0.006818
362.0,0.005901
362.5,0.008171
363.0,0.007342
363.5,0.006764
364.0,0.008275
364.5,0.007073
365.0,0.007204
365.5,0.009046
366.0,0.009589
366.5,0.009015
367.0,0.008784
367.5,0.009118
368.0,0.00798
368.5,0.008051
369.0,0.008698
369.5,0.009275
370.0,0.009892
370.5,0.007681
371.0,0.00821
371.5,0.01027
372.0,0.006821
372.5,0.008182
373.0,0.008324
373.5,0.005417
374.0,0.007873
374.5,0.006522
375.0,0.006342
375.5,0.009471
376.0,0.007854
376.5,0.008141
377.0,0.008622
377.5,0.01009
378.0,0.01094
378.5,0.01034
379.0,0.008538
379.5,0.007801
380.0,0.008113
380.5,0.009828
381.0,0.009851
381.5,0.007811
382.0,0.006939
382.5,0.005917
383.0,0.005479
383.5,0.005279
384.0,0.005825
384.5,0.00857
385.0,0.008501
385.5,0.007919
386.0,0.006784
386.5,0.008913
387.0,0.007408
387.5,0.008323
388.0,0.007686
388.5,0.0076
389.0,0.008205
389.5,0.00994
390.0,0.009979
390.5,0.009186
391.0,0.01082
391.5,0.01103
392.0,0.009296
392.5,0.008325
393.0,0.004633
393.5,0.003369
394.0,0.006856
394.5,0.008719
395.0,0.01064
395.5,0.01081
396.0,0.009377
396.5,0.005483
397.0,0.004117
397.5,0.008375
398.0,0.01173
398.5,0.01213
399.0,0.01314
399.5,0.0131
400.0,0.0136
401.0,0.01343
402.0,0.01418
403.0,0.01347
404.0,0.01327
405.0,0.01327
406.0,0.01306
407.0,0.01284
408.0,0.01334
409.0,0.01428
410.0,0.01248
411.0,0.01352
412.0,0.01452
413.0,0.01417
414.0,0.01435
415.0,0.01438
416.0,0.01463
417.0,0.01426
418.0,0.014
419.0,0.01419
420.0,0.01413
421.0,0.01478
422.0,0.01404
423.0,0.01369
424.0,0.01447
425.0,0.01443
426.0,0.01406
427.0,0.0138
428.0,0.01346
429.0,0.01275
430.0,0.01116
431.0,0.01105
432.0,0.01425
433.0,0.01432
434.0,0.0133
435.0,0.0139
436.0,0.01566
437.0,0.01543
438.0,0.01403
439.0,0.01448
440.0,0.01491
441.0,0.01541
442.0,0.0165
443.0,0.01606
444.0,0.01642
445.0,0.01609
446.0,0.01538
447.0,0.01664
448.0,0.01688
449.0,0.0169
450.0,0.01734
451.0,0.01796
452.0,0.01731
453.0,0.01629
454.0,0.017
455.0,0.01707
456.0,0.01743
457.0,0.01766
458.0,0.01698
459.0,0.01681
460.0,0.01678
461.0,0.01712
462.0,0.01724
463.0,0.01715
464.0,0.01692
465.0,0.01675
466.0,0.01692
467.0,0.01659
468.0,0.01674
469.0,0.01677
470.0,0.0162
471.0,0.01617
472.0,0.01703
473.0,0.01681
474.0,0.01681
475.0,0.01689
476.0,0.0163
477.0,0.01624
478.0,0.01658
479.0,0.01636
480.0,0.01627
481.0,0.01647
482.0,0.01651
483.0,0.01631
484.0,0.01601
485.0,0.0153
486.0,0.01342
487.0,0.01408
488.0,0.01543
489.0,0.01543
490.0,0.01617
491.0,0.01584
492.0,0.01492
493.0,0.0154
494.0,0.01553
495.0,0.01564
496.0,0.01568
497.0,0.01584
498.0,0.01499
499.0,0.01505
500.0,0.01449
501.0,0.0141
502.0,0.01376
503.0,0.0142
504.0,0.01374
505.0,0.01417
506.0,0.01461
507.0,0.0139
508.0,0.0135
509.0,0.01391
510.0,0.01385
511.0,0.01422
512.0,0.01435
513.0,0.01354
514.0,0.01339
515.0,0.0132
516.0,0.01311
517.0,0.01161
518.0,0.01217
519.0,0.01272
520.0,0.01313
521.0,0.01319
522.0,0.01312
523.0,0.01282
524.0,0.01318
525.0,0.01322
526.0,0.01252
527.0,0.01169
528.0,0.01226
529.0,0.01283
530.0,0.01255
531.0,0.01266
532.0,0.01216
533.0,0.01176
534.0,0.01208
535.0,0.01233
536.0,0.01244
537.0,0.01193
538.0,0.01212
539.0,0.01198
540.0,0.01143
541.0,0.01145
542.0,0.01174
543.0,0.01155
544.0,0.01169
545.0,0.0116
546.0,0.0116
547.0,0.01155
548.0,0.01138
549.0,0.01138
550.0,0.01147
551.0,0.01129
552.0,0.01133
553.0,0.01108
554.0,0.01129
555.0,0.01126
556.0,0.01105
557.0,0.01064
558.0,0.01048
559.0,0.0102
560.0,0.01024
561.0,0.0103
562.0,0.01014
563.0,0.01033
564.0,0.009987
565.0,0.00984
566.0,0.009643
567.0,0.009767
568.0,0.00962
569.0,0.009341
570.0,0.009287
571.0,0.00918
572.0,0.00935
573.0,0.009413
574.0,0.009357
575.0,0.009165
576.0,0.009076
577.0,0.009177
578.0,0.009046
579.0,0.009093
580.0,0.00928
581.0,0.009344
582.0,0.009532
583.0,0.00956
584.0,0.009643
585.0,0.009402
586.0,0.009198
587.0,0.009382
588.0,0.009131
589.0,0.008047
590.0,0.008384
591.0,0.008845
592.0,0.008679
593.0,0.008758
594.0,0.008629
595.0,0.008352
596.0,0.008635
597.0,0.008467
598.0,0.008382
599.0,0.008336
600.0,0.008298
601.0,0.008195
602.0,0.008116
603.0,0.008237
604.0,0.00837
605.0,0.008332
606.0,0.00831
607.0,0.008414
608.0,0.008346
609.0,0.008387
610.0,0.008357
611.0,0.00843
612.0,0.008434
613.0,0.008355
614.0,0.008266
615.0,0.008468
616.0,0.008209
617.0,0.008208
618.0,0.00854
619.0,0.008465
620.0,0.008524
621.0,0.008538
622.0,0.008441
623.0,0.008314
624.0,0.00817
625.0,0.008154
626.0,0.008276
627.0,0.008367
628.0,0.00776
629.0,0.008152
630.0,0.007968
631.0,0.008175
632.0,0.008092
633.0,0.008355
634.0,0.008293
635.0,0.008439
636.0,0.008343
637.0,0.008497
638.0,0.008599
639.0,0.008519
640.0,0.008456
641.0,0.008465
642.0,0.008443
643.0,0.00857
644.0,0.008553
645.0,0.008565
646.0,0.008365
647.0,0.008239
648.0,0.008252
649.0,0.008088
650.0,0.008158
651.0,0.008519
652.0,0.008135
653.0,0.008411
654.0,0.008325
655.0,0.007989
656.0,0.00709
657.0,0.007291
658.0,0.008177
659.0,0.008248
660.0,0.008281
661.0,0.008346
662.0,0.008371
663.0,0.008205
664.0,0.008303
665.0,0.008311
666.0,0.008322
667.0,0.008323
668.0,0.008334
669.0,0.008465
670.0,0.008426
671.0,0.008428
672.0,0.008358
673.0,0.008488
674.0,0.008454
675.0,0.008377
676.0,0.008432
677.0,0.008346
678.0,0.008368
679.0,0.008229
680.0,0.008286
681.0,0.00822
682.0,0.008197
683.0,0.008167
684.0,0.008112
685.0,0.008174
686.0,0.008109
687.0,0.005275
688.0,0.006144
689.0,0.006161
690.0,0.006453
691.0,0.006794
692.0,0.007063
693.0,0.007009
694.0,0.006966
695.0,0.007286
696.0,0.007292
697.0,0.007812
698.0,0.007658
699.0,0.007418
700.0,0.007319
701.0,0.007215
702.0,0.00726
703.0,0.007283
704.0,0.007525
705.0,0.007518
706.0,0.007506
707.0,0.007498
708.0,0.007513
709.0,0.007524
710.0,0.007478
711.0,0.007463
712.0,0.007442
713.0,0.007323
714.0,0.007344
715.0,0.007074
716.0,0.007042
717.0,0.005997
718.0,0.005512
719.0,0.005051
720.0,0.005267
721.0,0.005833
722.0,0.006682
723.0,0.006207
724.0,0.00557
725.0,0.00546
726.0,0.005683
727.0,0.005799
728.0,0.005396
729.0,0.005608
730.0,0.005904
731.0,0.005635
732.0,0.006042
733.0,0.00641
734.0,0.006567
735.0,0.006407
736.0,0.006358
737.0,0.006377
738.0,0.00651
739.0,0.006361
740.0,0.006524
741.0,0.006446
742.0,0.006443
743.0,0.006582
744.0,0.006542
745.0,0.006529
746.0,0.006536
747.0,0.006532
748.0,0.0065
749.0,0.006411
750.0,0.006396
751.0,0.006322
752.0,0.006342
753.0,0.006365
754.0,0.006369
755.0,0.00632
756.0,0.006305
757.0,0.006299
758.0,0.006202
759.0,0.006005
760.0,0.00102
761.0,0.0005443
762.0,0.002992
763.0,0.001524
764.0,0.002257
765.0,0.002966
766.0,0.003602
767.0,0.004511
768.0,0.005234
769.0,0.005362
770.0,0.005593
771.0,0.005658
772.0,0.005661
773.0,0.005677
774.0,0.005624
775.0,0.005555
776.0,0.005596
777.0,0.005495
778.0,0.005435
779.0,0.005417
780.0,0.005368
781.0,0.005358
782.0,0.005381
783.0,0.005278
784.0,0.005294
785.0,0.005243
786.0,0.005284
787.0,0.005149
788.0,0.00507
789.0,0.005044
790.0,0.004867
791.0,0.004919
792.0,0.004875
793.0,0.004779
794.0,0.004887
795.0,0.004942
796.0,0.004724
797.0,0.004731
798.0,0.004887
799.0,0.004826
800.0,0.004702
801.0,0.004661
802.0,0.004636
803.0,0.004567
804.0,0.004569
805.0,0.00455
806.0,0.004686
807.0,0.004598
808.0,0.004578
809.0,0.004446
810.0,0.004386
811.0,0.004329
812.0,0.004174
813.0,0.004059
814.0,0.003526
815.0,0.003487
816.0,0.003249
817.0,0.003293
818.0,0.003162
819.0,0.003518
820.0,0.003331
821.0,0.003895
822.0,0.003757
823.0,0.002511
824.0,0.003624
825.0,0.003826
826.0,0.003621
827.0,0.00384
828.0,0.003202
829.0,0.003594
830.0,0.003534
831.0,0.00353
832.0,0.003407
833.0,0.003614
834.0,0.003469
835.0,0.003839
836.0,0.003636
837.0,0.003818
838.0,0.003668
839.0,0.003746
840.0,0.003821
841.0,0.00374
842.0,0.003744
843.0,0.003748
844.0,0.00367
845.0,0.003787
846.0,0.003762
847.0,0.003678
848.0,0.00363
849.0,0.003509
850.0,0.003343
851.0,0.003508
852.0,0.003473
853.0,0.003333
854.0,0.002864
855.0,0.003141
856.0,0.003421
857.0,0.003492
858.0,0.003454
859.0,0.003453
860.0,0.003451
861.0,0.003423
862.0,0.00347
863.0,0.003543
864.0,0.003358
865.0,0.003319
866.0,0.002976
867.0,0.003096
868.0,0.003359
869.0,0.003279
870.0,0.003362
871.0,0.003304
872.0,0.003282
873.0,0.003263
874.0,0.003213
875.0,0.003136
876.0,0.003156
877.0,0.003175
878.0,0.003197
879.0,0.003135
880.0,0.003055
881.0,0.002994
882.0,0.003043
883.0,0.003044
884.0,0.003016
885.0,0.003023
886.0,0.002856
887.0,0.002888
888.0,0.002911
889.0,0.002946
890.0,0.002894
891.0,0.00289
892.0,0.00277
893.0,0.002665
894.0,0.002532
895.0,0.002359
896.0,0.00221
897.0,0.001885
898.0,0.00205
899.0,0.001538
900.0,0.00208
901.0,0.001603
902.0,0.001872
903.0,0.001894
904.0,0.002414
905.0,0.002315
906.0,0.002157
907.0,0.001727
908.0,0.001764
909.0,0.0019
910.0,0.001661
911.0,0.001775
912.0,0.001869
913.0,0.001669
914.0,0.001665
915.0,0.001778
916.0,0.001508
917.0,0.001906
918.0,0.001531
919.0,0.001932
920.0,0.001965
921.0,0.002031
922.0,0.001796
923.0,0.00195
924.0,0.001822
925.0,0.001774
926.0,0.001786
927.0,0.001997
928.0,0.001439
929.0,0.001306
930.0,0.00102
931.0,0.0009632
932.0,0.0006894
933.0,0.0005574
934.0,0.0003026
935.0,0.0005668
936.0,0.0003512
937.0,0.0003542
938.0,0.0004342
939.0,0.0009033
940.0,0.001083
941.0,0.0008119
942.0,0.000937
943.0,0.000612
944.0,0.0006433
945.0,0.0008237
946.0,0.0004158
947.0,0.0008217
948.0,0.0006016
949.0,0.001096
950.0,0.0003003
951.0,0.001073
952.0,0.0005717
953.0,0.0007379
954.0,0.000904
955.0,0.0007422
956.0,0.0007188
957.0,0.0005624
958.0,0.001015
959.0,0.0008004
960.0,0.0008946
961.0,0.001004
962.0,0.0009456
963.0,0.001091
964.0,0.0009942
965.0,0.001077
966.0,0.001076
967.0,0.001069
968.0,0.001469
969.0,0.001506
970.0,0.001388
971.0,0.001589
972.0,0.001516
973.0,0.001293
974.0,0.001222
975.0,0.001273
976.0,0.001199
977.0,0.001382
978.0,0.00129
979.0,0.001354
980.0,0.001269
981.0,0.001528
982.0,0.001449
983.0,0.001381
984.0,0.001576
985.0,0.001424
986.0,0.001614
987.0,0.001552
988.0,0.001549
989.0,0.001597
990.0,0.001519
991.0,0.001582
992.0,0.001589
993.0,0.00153
994.0,0.001582
995.0,0.001579
996.0,0.001564
997.0,0.001563
998.0,0.001549
999.0,0.00154
1000.0,0.001522
1001.0,0.001538
1002.0,0.001471
1003.0,0.0015
1004.0,0.001451
1005.0,0.0014
1006.0,0.001449
1007.0,0.001474
1008.0,0.001458
1009.0,0.001441
1010.0,0.00143
1011.0,0.001445
1012.0,0.001426
1013.0,0.001433
1014.0,0.001418
1015.0,0.001404
1016.0,0.001392
1017.0,0.001389
1018.0,0.001382
1019.0,0.001339
1020.0,0.001364
1021.0,0.001358
1022.0,0.00134
1023.0,0.00135
1024.0,0.00132
1025.0,0.001341
1026.0,0.001328
1027.0,0.001322
1028.0,0.001313
1029.0,0.001292
1030.0,0.001298
1031.0,0.001289
1032.0,0.00128
1033.0,0.001257
1034.0,0.001252
1035.0,0.001252
1036.0,0.001252
1037.0,0.001228
1038.0,0.001229
1039.0,0.001223
1040.0,0.001214
1041.0,0.001213
1042.0,0.0012
1043.0,0.001192
1044.0,0.001191
1045.0,0.00117
1046.0,0.001152
1047.0,0.001158
1048.0,0.00116
1049.0,0.001151
1050.0,0.001141
1051.0,0.001134
1052.0,0.001125
1053.0,0.001111
1054.0,0.001109
1055.0,0.001104
1056.0,0.001095
1057.0,0.001087
1058.0,0.001056
1059.0,0.001052
1060.0,0.001046
1061.0,0.001041
1062.0,0.001042
1063.0,0.001027
1064.0,0.001036
1065.0,0.001022
1066.0,0.001
1067.0,0.001009
1068.0,0.0009823
1069.0,0.0009503
1070.0,0.0009795
1071.0,0.0009943
1072.0,0.000977
1073.0,0.0009601
1074.0,0.0009863
1075.0,0.0009227
1076.0,0.0009791
1077.0,0.0009521
1078.0,0.0009265
1079.0,0.0009563
1080.0,0.0009267
1081.0,0.0008886
1082.0,0.0009104
1083.0,0.0009119
1084.0,0.000877
1085.0,0.0009149
1086.0,0.0008221
1087.0,0.0008497
1088.0,0.0008944
1089.0,0.0008526
1090.0,0.0008286
1091.0,0.0008779
1092.0,0.0008749
1093.0,0.0007214
1094.0,0.0007913
1095.0,0.0007448
1096.0,0.0007075
1097.0,0.0008415
1098.0,0.0006917
1099.0,0.000718
1100.0,0.0006608
1101.0,0.0006692
1102.0,0.0006344
1103.0,0.0006232
1104.0,0.0006239
1105.0,0.0006838
1106.0,0.0005133
1107.0,0.0006444
1108.0,0.0005379
1109.0,0.0005378
1110.0,0.0006279
1111.0,0.0004199
1112.0,0.0005293
1113.0,0.0003315
1114.0,0.0003695
1115.0,0.0003051
1116.0,0.0002413
1117.0,8.683e-05
1118.0,0.0002613
1119.0,0.000128
1120.0,0.0001605
1121.0,0.000213
1122.0,8.825e-05
1123.0,0.0001436
1124.0,0.0001208
1125.0,0.0001574
1126.0,5.349e-05
1127.0,0.0001764
1128.0,0.000104
1129.0,0.0001102
1130.0,7.177e-05
1131.0,0.000333
1132.0,0.0002598
1133.0,0.0001626
1134.0,4.051e-05
1135.0,1.518e-05
1136.0,0.0001337
1137.0,0.0003201
1138.0,0.0002244
1139.0,0.0003365
1140.0,0.0002791
1141.0,0.0002112
1142.0,0.0002427
1143.0,0.0003447
1144.0,0.0001186
1145.0,0.0001507
1146.0,0.000162
1147.0,5.571e-05
1148.0,0.0002934
1149.0,0.0002326
1150.0,0.0001252
1151.0,0.0002133
1152.0,0.0002626
1153.0,0.0002559
1154.0,0.0001416
1155.0,0.0003329
1156.0,0.0002983
1157.0,0.0003346
1158.0,0.0003298
1159.0,0.0003553
1160.0,0.0003022
1161.0,0.0003737
1162.0,0.0003752
1163.0,0.0005091
1164.0,0.0004345
1165.0,0.0004052
1166.0,0.0004044
1167.0,0.0004392
1168.0,0.0004423
1169.0,0.0004528
1170.0,0.0004939
1171.0,0.0004778
1172.0,0.0004914
1173.0,0.0004864
1174.0,0.0003423
1175.0,0.0004755
1176.0,0.0005308
1177.0,0.0005007
1178.0,0.0003695
1179.0,0.0005282
1180.0,0.0004664
1181.0,0.0004744
1182.0,0.0003215
1183.0,0.0004654
1184.0,0.0004366
1185.0,0.0004165
1186.0,0.0004968
1187.0,0.0004673
1188.0,0.0003208
1189.0,0.0004338
1190.0,0.000481
1191.0,0.0004496
1192.0,0.0004855
1193.0,0.000465
1194.0,0.0004755
1195.0,0.0004438
1196.0,0.000424
1197.0,0.0004716
1198.0,0.0004302
1199.0,0.0003577
1200.0,0.0004446
1201.0,0.0004241
1202.0,0.0004251
1203.0,0.0004159
1204.0,0.0003665
1205.0,0.0004348
1206.0,0.0004816
1207.0,0.0004154
1208.0,0.0004098
1209.0,0.0004174
1210.0,0.0004378
1211.0,0.0004127
1212.0,0.0003999
1213.0,0.000452
1214.0,0.0004085
1215.0,0.0003985
1216.0,0.0004485
1217.0,0.0004333
1218.0,0.0004419
1219.0,0.000434
1220.0,0.0004394
1221.0,0.0004445
1222.0,0.0004302
1223.0,0.0004241
1224.0,0.0004182
1225.0,0.0004339
1226.0,0.0004387
1227.0,0.0003969
1228.0,0.0004409
1229.0,0.0004341
1230.0,0.0004244
1231.0,0.0004407
1232.0,0.0004367
1233.0,0.000412
1234.0,0.0004383
1235.0,0.0004323
1236.0,0.0004356
1237.0,0.0004246
1238.0,0.0004315
1239.0,0.0004247
1240.0,0.0004255
1241.0,0.0004201
1242.0,0.0004195
1243.0,0.0004151
1244.0,0.0004157
1245.0,0.0004168
1246.0,0.0004133
1247.0,0.0004094
1248.0,0.0004069
1249.0,0.0004078
1250.0,0.0004032
1251.0,0.0003951
1252.0,0.0003962
1253.0,0.000388
1254.0,0.000381
1255.0,0.0003913
1256.0,0.0003729
1257.0,0.0003686
1258.0,0.0003787
1259.0,0.0003565
1260.0,0.000358
1261.0,0.0003317
1262.0,0.0003192
1263.0,0.0003188
1264.0,0.0002917
1265.0,0.0003148
1266.0,0.0003008
1267.0,0.000306
1268.0,0.0002882
1269.0,0.0001788
1270.0,0.0003017
1271.0,0.0003213
1272.0,0.0003215
1273.0,0.0003167
1274.0,0.0003176
1275.0,0.0003218
1276.0,0.0003251
1277.0,0.000328
1278.0,0.0003358
1279.0,0.0003321
1280.0,0.0003276
1281.0,0.0003135
1282.0,0.0003034
1283.0,0.0003251
1284.0,0.0003323
1285.0,0.0003338
1286.0,0.0003383
1287.0,0.0003309
1288.0,0.0003302
1289.0,0.0003129
1290.0,0.0003254
1291.0,0.0003301
1292.0,0.0003007
1293.0,0.0003201
1294.0,0.0003158
1295.0,0.0003091
1296.0,0.000292
1297.0,0.0002744
1298.0,0.0002977
1299.0,0.0003137
1300.0,0.0002572
1301.0,0.0002638
1302.0,0.0002931
1303.0,0.000254
1304.0,0.0002117
1305.0,0.0002833
1306.0,0.0002806
1307.0,0.0002154
1308.0,0.0002488
1309.0,0.0002751
1310.0,0.0002096
1311.0,0.0002373
1312.0,0.0002286
1313.0,0.0002222
1314.0,0.0001968
1315.0,0.0001937
1316.0,0.0002289
1317.0,0.0002171
1318.0,0.0002356
1319.0,0.0001806
1320.0,0.0001738
1321.0,0.000203
1322.0,0.0002032
1323.0,0.000152
1324.0,0.0001745
1325.0,0.0002173
1326.0,0.0001856
1327.0,0.0001761
1328.0,0.0001509
1329.0,0.0001129
1330.0,0.0001466
1331.0,8.819e-05
1332.0,9.081e-05
1333.0,0.000126
1334.0,0.0001065
1335.0,0.0001461
1336.0,0.0001151
1337.0,0.0001015
1338.0,0.0001095
1339.0,0.0001087
1340.0,0.0001055
1341.0,0.0001026
1342.0,0.0001075
1343.0,7.243e-05
1344.0,4.326e-05
1345.0,6.222e-05
1346.0,3.07e-05
1347.0,3.11e-05
1348.0,2.005e-06
1349.0,7.193e-06
1350.0,7.456e-06
1351.0,1.803e-06
1352.0,4.849e-07
1353.0,2.468e-08
1354.0,8.483e-08
1355.0,6.831e-10
1356.0,1.196e-08
1357.0,1.817e-08
1358.0,8.022e-10
1359.0,1.011e-10
1360.0,3.653e-10
1361.0,4.086e-13
1362.0,1.118e-15
1363.0,4.912e-10
1364.0,2.028e-10
1365.0,3.904e-16
1366.0,2.129e-09
1367.0,8.692e-10
1368.0,3.015e-18
1369.0,7.476e-11
1370.0,3.682e-11
1371.0,2.087e-12
1372.0,4.716e-10
1373.0,9.502e-09
1374.0,4.407e-08
1375.0,7.994e-08
1376.0,7.17e-08
1377.0,3.275e-08
1378.0,3.202e-07
1379.0,1.369e-08
1380.0,1.967e-08
1381.0,5.124e-10
1382.0,4.136e-10
1383.0,6.184e-12
1384.0,8.109e-11
1385.0,3.878e-10
1386.0,3.648e-10
1387.0,4.412e-08
1388.0,8.678e-10
1389.0,1.49e-07
1390.0,1.279e-07
1391.0,8.505e-08
1392.0,5.513e-09
1393.0,2.921e-08
1394.0,1.506e-08
1395.0,1.103e-10
1396.0,5.333e-13
1397.0,1.15e-08
1398.0,3.401e-07
1399.0,2.152e-07
1400.0,2.281e-13
1401.0,9.463e-13
1402.0,5.961e-07
1403.0,7.468e-07
1404.0,2.269e-07
1405.0,5.228e-11
1406.0,5.865e-07
1407.0,5.169e-08
1408.0,4.772e-07
1409.0,1.591e-07
1410.0,1.274e-07
1411.0,6.424e-07
1412.0,8.667e-07
1413.0,9.021e-06
1414.0,9.946e-08
1415.0,4.75e-08
1416.0,1.491e-05
1417.0,4.403e-06
1418.0,4.986e-06
1419.0,7.674e-07
1420.0,3.031e-06
1421.0,3.269e-06
1422.0,1.917e-05
1423.0,3.677e-06
1424.0,6.903e-06
1425.0,1.008e-05
1426.0,1.154e-05
1427.0,2.147e-05
1428.0,1.502e-06
1429.0,1.581e-05
1430.0,2.728e-05
1431.0,2.999e-05
1432.0,1.168e-06
1433.0,1.882e-05
1434.0,9.469e-06
1435.0,9.175e-06
1436.0,1.807e-05
1437.0,1.382e-05
1438.0,5.704e-06
1439.0,2.456e-05
1440.0,1.834e-05
1441.0,1.372e-05
1442.0,1.52e-05
1443.0,1.938e-05
1444.0,2.699e-05
1445.0,2.073e-05
1446.0,9.197e-06
1447.0,1.45e-05
1448.0,5.136e-05
1449.0,4.413e-05
1450.0,1.068e-05
1451.0,4.207e-06
1452.0,2.598e-05
1453.0,3.424e-05
1454.0,6.022e-05
1455.0,2.773e-05
1456.0,3.696e-05
1457.0,5.037e-05
1458.0,6.016e-05
1459.0,7.083e-05
1460.0,3.628e-05
1461.0,3.735e-05
1462.0,5.547e-05
1463.0,1.737e-05
1464.0,6.621e-05
1465.0,3.962e-05
1466.0,2.624e-05
1467.0,1.342e-05
1468.0,3.106e-05
1469.0,3.853e-05
1470.0,1.851e-05
1471.0,6.564e-06
1472.0,1.759e-05
1473.0,2.736e-05
1474.0,4.059e-05
1475.0,7.795e-05
1476.0,2.721e-05
1477.0,2.718e-05
1478.0,2.538e-05
1479.0,4.947e-05
1480.0,2.327e-05
1481.0,4.684e-05
1482.0,2.276e-05
1483.0,6.092e-05
1484.0,5.701e-05
1485.0,5.033e-05
1486.0,4.922e-05
1487.0,2.194e-05
1488.0,3.92e-05
1489.0,7.823e-05
1490.0,7.22e-05
1491.0,8.199e-05
1492.0,6.671e-05
1493.0,7.37e-05
1494.0,8.349e-05
1495.0,7.37e-05
1496.0,6.868e-05
1497.0,9.56e-05
1498.0,7.718e-05
1499.0,9.003e-05
1500.0,0.0001051
1501.0,0.0001099
1502.0,9.256e-05
1503.0,7.74e-05
1504.0,6.136e-05
1505.0,7.422e-05
1506.0,0.0001092
1507.0,0.0001047
1508.0,9.975e-05
1509.0,7.483e-05
1510.0,0.0001129
1511.0,0.0001078
1512.0,0.0001079
1513.0,9.693e-05
1514.0,9.029e-05
1515.0,0.0001104
1516.0,0.000105
1517.0,0.0001012
1518.0,0.0001014
1519.0,9.803e-05
1520.0,0.000106
1521.0,0.000116
1522.0,0.0001079
1523.0,0.0001172
1524.0,0.0001119
1525.0,0.0001053
1526.0,0.0001068
1527.0,0.0001065
1528.0,0.0001146
1529.0,0.0001079
1530.0,0.0001048
1531.0,0.0001082
1532.0,0.0001141
1533.0,0.0001143
1534.0,0.0001124
1535.0,0.0001108
1536.0,0.0001127
1537.0,0.0001104
1538.0,0.0001114
1539.0,0.0001091
1540.0,0.0001094
1541.0,0.0001097
1542.0,0.0001082
1543.0,0.0001102
1544.0,0.0001086
1545.0,0.0001106
1546.0,0.0001079
1547.0,0.0001066
1548.0,0.0001064
1549.0,0.0001074
1550.0,0.0001062
1551.0,0.0001064
1552.0,0.0001055
1553.0,0.0001048
1554.0,0.0001034
1555.0,0.0001037
1556.0,0.0001032
1557.0,0.0001042
1558.0,0.0001034
1559.0,0.0001025
1560.0,0.0001028
1561.0,0.0001033
1562.0,0.0001016
1563.0,0.0001005
1564.0,0.0001006
1565.0,0.0001009
1566.0,9.91e-05
1567.0,9.909e-05
1568.0,9.772e-05
1569.0,9.835e-05
1570.0,9.886e-05
1571.0,9.927e-05
1572.0,9.836e-05
1573.0,9.729e-05
1574.0,9.344e-05
1575.0,9.202e-05
1576.0,8.997e-05
1577.0,8.74e-05
1578.0,9.133e-05
1579.0,9.155e-05
1580.0,9.224e-05
1581.0,9.066e-05
1582.0,8.87e-05
1583.0,8.876e-05
1584.0,9.082e-05
1585.0,9.172e-05
1586.0,9.038e-05
1587.0,8.858e-05
1588.0,8.645e-05
1589.0,8.362e-05
1590.0,8.506e-05
1591.0,8.706e-05
1592.0,8.912e-05
1593.0,9.054e-05
1594.0,9.005e-05
1595.0,8.876e-05
1596.0,8.58e-05
1597.0,8.741e-05
1598.0,8.887e-05
1599.0,8.772e-05
1600.0,8.707e-05
1601.0,8.543e-05
1602.0,8.531e-05
1603.0,8.631e-05
1604.0,8.54e-05
1605.0,8.521e-05
1606.0,8.401e-05
1607.0,8.457e-05
1608.0,8.389e-05
1609.0,8.179e-05
1610.0,7.985e-05
1611.0,8.105e-05
1612.0,8.191e-05
1613.0,8.16e-05
1614.0,8.156e-05
1615.0,7.956e-05
1616.0,7.813e-05
1617.0,7.917e-05
1618.0,8.064e-05
1619.0,7.861e-05
1620.0,7.713e-05
1621.0,7.772e-05
1622.0,7.872e-05
1623.0,7.972e-05
1624.0,7.841e-05
1625.0,7.785e-05
1626.0,7.785e-05
1627.0,7.837e-05
1628.0,7.778e-05
1629.0,7.709e-05
1630.0,7.635e-05
1631.0,7.536e-05
1632.0,7.527e-05
1633.0,7.2e-05
1634.0,7.437e-05
1635.0,7.219e-05
1636.0,7.202e-05
1637.0,7.135e-05
1638.0,6.563e-05
1639.0,6.946e-05
1640.0,6.483e-05
1641.0,6.836e-05
1642.0,6.994e-05
1643.0,6.385e-05
1644.0,6.981e-05
1645.0,6.619e-05
1646.0,6.362e-05
1647.0,7.029e-05
1648.0,6.312e-05
1649.0,6.768e-05
1650.0,6.818e-05
1651.0,6.111e-05
1652.0,6.689e-05
1653.0,6.791e-05
1654.0,6.232e-05
1655.0,6.736e-05
1656.0,6.528e-05
1657.0,6.596e-05
1658.0,6.743e-05
1659.0,6.651e-05
1660.0,6.69e-05
1661.0,6.654e-05
1662.0,6.382e-05
1663.0,6.605e-05
1664.0,6.521e-05
1665.0,5.971e-05
1666.0,4.789e-05
1667.0,5.893e-05
1668.0,6.236e-05
1669.0,6.283e-05
1670.0,6.407e-05
1671.0,6.17e-05
1672.0,6.12e-05
1673.0,6.254e-05
1674.0,6.03e-05
1675.0,5.948e-05
1676.0,6.022e-05
1677.0,5.945e-05
1678.0,5.706e-05
1679.0,5.936e-05
1680.0,5.65e-05
1681.0,5.391e-05
1682.0,5.786e-05
1683.0,5.903e-05
1684.0,5.256e-05
1685.0,5.933e-05
1686.0,5.901e-05
1687.0,5.559e-05
1688.0,5.812e-05
1689.0,5.75e-05
1690.0,5.69e-05
1691.0,5.06e-05
1692.0,5.617e-05
1693.0,5.834e-05
1694.0,5.503e-05
1695.0,5.714e-05
1696.0,5.728e-05
1697.0,4.63e-05
1698.0,5.608e-05
1699.0,5.536e-05
1700.0,5.323e-05
1702.0,5.432e-05
1705.0,5.176e-05
1710.0,4.84e-05
1715.0,4.825e-05
1720.0,4.733e-05
1725.0,4.286e-05
1730.0,4.254e-05
1735.0,3.898e-05
1740.0,3.918e-05
1745.0,3.668e-05
1750.0,3.793e-05
1755.0,3.481e-05
1760.0,3.553e-05
1765.0,2.875e-05
1770.0,3.022e-05
1775.0,2.395e-05
1780.0,2.021e-05
1785.0,1.497e-05
1790.0,1.716e-05
1795.0,8.339e-06
1800.0,5.737e-06
1805.0,2.278e-06
1810.0,1.479e-06
1815.0,4.279e-07
1820.0,1.07e-07
1825.0,1.397e-07
1830.0,3.405e-10
1835.0,5.157e-10
1840.0,3.009e-12
1845.0,3.218e-10
1850.0,1.453e-10
1855.0,1.388e-11
1860.0,7.956e-10
1865.0,1.109e-09
1870.0,6.069e-15
1875.0,1.097e-14
1880.0,5.841e-09
1885.0,3.113e-09
1890.0,1.707e-08
1895.0,9.907e-09
1900.0,4.235e-11
1905.0,2.885e-11
1910.0,1.397e-09
1915.0,1.361e-09
1920.0,3.57e-08
1925.0,8.387e-08
1930.0,4.844e-08
1935.0,3.693e-07
1940.0,3.667e-07
1945.0,1.51e-06
1950.0,2.937e-06
1955.0,2.619e-06
1960.0,4.605e-06
1965.0,6.691e-06
1970.0,9.36e-06
1975.0,1.052e-05
1980.0,1.045e-05
1985.0,1.116e-05
1990.0,1.155e-05
1995.0,1.206e-05
2000.0,1.269e-05
2005.0,1.053e-05
2010.0,1.529e-05
2015.0,1.165e-05
2020.0,1.247e-05
2025.0,1.362e-05
2030.0,1.231e-05
2035.0,1.353e-05
2040.0,1.268e-05
2045.0,1.299e-05
2050.0,1.325e-05
2055.0,1.243e-05
2060.0,1.188e-05
2065.0,1.207e-05
2070.0,1.177e-05
2075.0,1.208e-05
2080.0,1.169e-05
2085.0,1.151e-05
2090.0,1.154e-05
2095.0,1.105e-05
2100.0,1.012e-05
2105.0,1.093e-05
2110.0,1.029e-05
2115.0,1.055e-05
2120.0,9.704e-06
2125.0,9.831e-06
2130.0,9.933e-06
2135.0,9.929e-06
2140.0,9.924e-06
2145.0,9.729e-06
2150.0,8.878e-06
2155.0,8.784e-06
2160.0,8.644e-06
2165.0,7.791e-06
2170.0,8.288e-06
2175.0,7.94e-06
2180.0,8.136e-06
2185.0,7.152e-06
2190.0,7.71e-06
2195.0,7.55e-06
2200.0,6.445e-06
2205.0,6.815e-06
2210.0,7.491e-06
2215.0,7.007e-06
2220.0,7.118e-06
2225.0,6.81e-06
2230.0,6.787e-06
2235.0,6.535e-06
2240.0,6.398e-06
2245.0,6.042e-06
2250.0,6.181e-06
2255.0,5.644e-06
2260.0,5.505e-06
2265.0,5.634e-06
2270.0,5.213e-06
2275.0,5.085e-06
2280.0,5.324e-06
2285.0,4.903e-06
2290.0,4.866e-06
2295.0,4.69e-06
2300.0,4.396e-06
2305.0,4.398e-06
2310.0,4.853e-06
2315.0,4.247e-06
2320.0,3.681e-06
2325.0,4.112e-06
2330.0,4.059e-06
2335.0,4.131e-06
2340.0,3.138e-06
2345.0,3.52e-06
2350.0,2.758e-06
2355.0,3.185e-06
2360.0,3.359e-06
2365.0,3.306e-06
2370.0,1.894e-06
2375.0,2.848e-06
2380.0,2.708e-06
2385.0,1.903e-06
2390.0,2.256e-06
2395.0,2.471e-06
2400.0,2.69e-06
2405.0,2.016e-06
2410.0,2.003e-06
2415.0,1.585e-06
2420.0,1.524e-06
2425.0,1.91e-06
2430.0,2.601e-06
2435.0,8.038e-07
2440.0,2.499e-06
2445.0,1.128e-06
2450.0,7.09e-07
2455.0,1.349e-06
2460.0,1.812e-06
2465.0,1.267e-06
2470.0,8.371e-07
2475.0,8.109e-07
2480.0,3.791e-07
2485.0,2.469e-07
2490.0,1.42e-07
2495.0,1.228e-07
2500.0,3.047e-07
2505.0,6.196e-08
2510.0,9.11e-08
2515.0,1.929e-08
2520.0,1.085e-08
2525.0,1.237e-09
2530.0,8.612e-12
2535.0,1.905e-12
2540.0,4.519e-12
2545.0,3.505e-16
2550.0,1.421e-18
2555.0,6.82e-15
2560.0,2.047e-16
2565.0,4.582e-20
2570.0,1.364e-24
2575.0,8.631e-35
2580.0,9e-29
2585.0,1.8810000000000002e-42
2590.0,1.174e-38
2595.0,2.284e-40
2600.0,1.88e-35
2605.0,2.0780000000000002e-42
2610.0,7.152e-42
2615.0,0.0
2620.0,6.303e-36
2625.0,1.154e-35
2630.0,0.0
2635.0,6.011e-22
2640.0,1.3009999999999998e-22
2645.0,5.6720000000000005e-25
2650.0,5.649000000000001e-26
2655.0,6.794e-35
2660.0,5.72e-32
2665.0,5.605e-45
2670.0,0.0
2675.0,2.803e-44
2680.0,1.16e-30
2685.0,1.1080000000000001e-31
2690.0,4.146e-31
2695.0,1.626e-33
2700.0,4.738e-29
2705.0,1.344e-26
2710.0,1.07e-31
2715.0,1.351e-29
2720.0,0.0
2725.0,3.025e-27
2730.0,8.819e-25
2735.0,1.006e-26
2740.0,1.817e-32
2745.0,2.342e-27
2750.0,1.3130000000000002e-26
2755.0,2.112e-28
2760.0,3.165e-23
2765.0,1.485e-29
2770.0,7.299e-27
2775.0,9.011e-24
2780.0,4.195e-21
2785.0,1.5750000000000002e-20
2790.0,3.592e-18
2795.0,7.902e-19
2800.0,2.522e-15
2805.0,4.716e-17
2810.0,1.891e-13
2815.0,5.641e-14
2820.0,6.893e-16
2825.0,6.05e-12
2830.0,1.315e-10
2835.0,1.811e-15
2840.0,3.875e-12
2845.0,1.341e-09
2850.0,2.321e-11
2855.0,9.273e-12
2860.0,4.82e-10
2865.0,3.554e-09
2870.0,9.014e-11
2875.0,8.651e-09
2880.0,5.452e-09
2885.0,8.981e-09
2890.0,3.818e-09
2895.0,6.508e-08
2900.0,1.814e-08
2905.0,2.1e-09
2910.0,6.638e-08
2915.0,2.817e-08
2920.0,6.991e-08
2925.0,2.492e-08
2930.0,1.508e-07
2935.0,1.663e-07
2940.0,3.723e-08
2945.0,3.198e-08
2950.0,1.291e-07
2955.0,5.747e-08
2960.0,1.14e-07
2965.0,1.93e-07
2970.0,7.564e-09
2975.0,1.916e-08
2980.0,2.981e-08
2985.0,1.754e-07
2990.0,2.656e-07
2995.0,1.009e-07
3000.0,1.918e-07
3005.0,6.529e-08
3010.0,1.679e-07
3015.0,1.302e-07
3020.0,1.176e-08
3025.0,1.794e-07
3030.0,1.413e-07
3035.0,5.372e-08
3040.0,4.198e-08
3045.0,9.017e-08
3050.0,2.044e-08
3055.0,5e-09
3060.0,1.403e-07
3065.0,5.941e-08
3070.0,3.339e-08
3075.0,1.308e-07
3080.0,7.6e-08
3085.0,3.356e-08
3090.0,4.563e-08
3095.0,1.123e-08
3100.0,9.121e-08
3105.0,1.709e-08
3110.0,1.431e-08
3115.0,4.293e-08
3120.0,2.103e-07
3125.0,6.178e-08
3130.0,1.227e-07
3135.0,2.458e-07
3140.0,6.537e-08
3145.0,6.41e-08
3150.0,1.352e-07
3155.0,1.138e-07
3160.0,1.888e-07
3165.0,2.963e-07
3170.0,2.623e-07
3175.0,1.843e-07
3180.0,2.175e-07
3185.0,1.522e-07
3190.0,7.977e-08
3195.0,4.429e-08
3200.0,6.25e-09
3205.0,4.083e-09
3210.0,1.701e-09
3215.0,6.915e-09
3220.0,2.428e-08
3225.0,2.792e-09
3230.0,4.637e-09
3235.0,1.299e-07
3240.0,5.908e-08
3245.0,1.122e-08
3250.0,4.137e-08
3255.0,1.772e-07
3260.0,1.77e-08
3265.0,3.831e-08
3270.0,1.804e-08
3275.0,1.089e-07
3280.0,4.624e-08
3285.0,2.002e-07
3290.0,1.506e-07
3295.0,1.854e-08
3300.0,2.755e-08
3305.0,6.326e-08
3310.0,6.007e-08
3315.0,8.707e-11
3320.0,5.486e-10
3325.0,5.045e-08
3330.0,7.663e-08
3335.0,1.483e-07
3340.0,5.464e-08
3345.0,5.307e-08
3350.0,1.322e-07
3355.0,5.368e-08
3360.0,8.239e-08
3365.0,1.161e-07
3370.0,5.627e-08
3375.0,1.363e-07
3380.0,7.405e-08
3385.0,1.173e-07
3390.0,1.542e-07
3395.0,1.494e-07
3400.0,2.016e-07
3405.0,6.171e-08
3410.0,1.083e-07
3415.0,1.053e-07
3420.0,2.099e-07
3425.0,1.504e-07
3430.0,1.268e-07
3435.0,1.802e-07
3440.0,1.154e-07
3445.0,1.716e-07
3450.0,1.675e-07
3455.0,1.195e-07
3460.0,1.902e-07
3465.0,1.408e-07
3470.0,1.837e-07
3475.0,1.593e-07
3480.0,1.631e-07
3485.0,1.771e-07
3490.0,1.478e-07
3495.0,1.777e-07
3500.0,1.715e-07
3505.0,1.692e-07
3510.0,1.709e-07
3515.0,1.62e-07
3520.0,1.717e-07
3525.0,1.593e-07
3530.0,1.539e-07
3535.0,1.258e-07
3540.0,1.188e-07
3545.0,1.256e-07
3550.0,1.412e-07
3555.0,1.184e-07
3560.0,1.439e-07
3565.0,1.432e-07
3570.0,1.08e-07
3575.0,1.114e-07
3580.0,1.336e-07
3585.0,1.166e-07
3590.0,1.215e-07
3595.0,1.24e-07
3600.0,1.323e-07
3605.0,1.317e-07
3610.0,1.192e-07
3615.0,1.192e-07
3620.0,1.485e-07
3625.0,1.265e-07
3630.0,1.229e-07
3635.0,1.265e-07
3640.0,1.428e-07
3645.0,1.279e-07
3650.0,1.214e-07
3655.0,1.326e-07
3660.0,1.314e-07
3665.0,1.204e-07
3670.0,9.052e-08
3675.0,5.152e-08
3680.0,9.364e-08
3685.0,1.074e-07
3690.0,1.106e-07
3695.0,1.155e-07
3700.0,1.254e-07
3705.0,1.229e-07
3710.0,1.043e-07
3715.0,1.024e-07
3720.0,1.17e-07
3725.0,1.2e-07
3730.0,1.018e-07
3735.0,9.182e-08
3740.0,9.432e-08
3745.0,1.116e-07
3750.0,9.988e-08
3755.0,9.592e-08
3760.0,9.386e-08
3765.0,8.992e-08
3770.0,9.661e-08
3775.0,9.497e-08
3780.0,1.01e-07
3785.0,9.102e-08
3790.0,7.893e-08
3795.0,9.127e-08
3800.0,1.033e-07
3805.0,9.583e-08
3810.0,8.319e-08
3815.0,7.713e-08
3820.0,9.879e-08
3825.0,9.615e-08
3830.0,9.731e-08
3835.0,7.462e-08
3840.0,8.913e-08
3845.0,8.611e-08
3850.0,8.633e-08
3855.0,8.191e-08
3860.0,7.539e-08
3865.0,7.569e-08
3870.0,6.751e-08
3875.0,6.051e-08
3880.0,5.797e-08
3885.0,6.001e-08
3890.0,6.07e-08
3895.0,6.701e-08
3900.0,7.149e-08
3905.0,7.094e-08
3910.0,6.243e-08
3915.0,6.044e-08
3920.0,6.009e-08
3925.0,5.872e-08
3930.0,6.068e-08
3935.0,6.33e-08
3940.0,6.391e-08
3945.0,6.488e-08
3950.0,6.571e-08
3955.0,6.621e-08
3960.0,6.661e-08
3965.0,6.692e-08
3970.0,6.58e-08
3975.0,6.36e-08
3980.0,6.233e-08
3985.0,6.23e-08
3990.0,6.112e-08
3995.0,5.938e-08
4000.0,5.658e-08
