interpolation:linear
wavelength,value
280.0,1.548e-23
280.5,5.411999999999999e-22
281.0,2.956e-21
281.5,9.965000000000001e-20
282.0,8.206e-19
282.5,3.183e-18
283.0,1.424e-17
283.5,2.269e-17
284.0,3.358e-16
284.5,9.651e-16
285.0,4.278e-16
285.5,2.382e-15
286.0,9.854e-15
286.5,4.673e-14
287.0,1.38e-13
287.5,5.511e-13
288.0,9.999e-12
288.5,1.825e-11
289.0,3.879e-11
289.5,1.024e-10
290.0,2.643e-10
290.5,5.136e-10
291.0,1.056e-09
291.5,2.921e-09
292.0,5.665e-09
292.5,7.481e-09
293.0,1.504e-08
293.5,3.417e-08
294.0,5.08e-08
294.5,1.016e-08
295.0,1.7e-08
295.5,2.704e-08
296.0,4.627e-08
296.5,5.769e-08
297.0,7.117e-08
297.5,1.667e-07
298.0,2.345e-07
298.5,2.162e-07
299.0,4.382e-07
299.5,6.282e-07
300.0,6.37e-07
300.5,8.494e-07
301.0,1.346e-06
301.5,1.905e-06
302.0,1.534e-06
302.5,1.636e-06
303.0,3.017e-06
303.5,3.846e-06
304.0,3.615e-06
304.5,5.464e-06
305.0,8.668e-06
305.5,1.037e-05
306.0,1.024e-05
306.5,1.323e-05
307.0,2.159e-05
307.5,3.198e-05
308.0,3.444e-05
308.5,4.321e-05
309.0,4.072e-05
309.5,4.339e-05
310.0,4.319e-05
310.5,6.996e-05
311.0,8.833e-05
311.5,8.568e-05
312.0,8.922e-05
312.5,0.0001132
313.0,0.000126
313.5,0.0001194
314.0,0.0001596
314.5,0.00017
315.0,0.0002312
315.5,0.0001765
316.0,0.0001799
316.5,0.0002969
317.0,0.0003678
317.5,0.0003677
318.0,0.000316
318.5,0.0004761
319.0,0.0006252
319.5,0.0004336
320.0,0.0005116
320.5,0.0007848
321.0,0.0008475
321.5,0.0008289
322.0,0.000718
322.5,0.0006312
323.0,0.000719
323.5,0.001807
324.0,0.002196
324.5,0.00201
325.0,0.0009272
325.5,0.001336
326.0,0.00312
326.5,0.003552
327.0,0.003377
327.5,0.00307
328.0,0.002291
328.5,0.002978
329.0,0.004268
329.5,0.005154
330.0,0.004945
330.5,0.003423
331.0,0.003341
331.5,0.003728
332.0,0.004767
332.5,0.005081
333.0,0.004854
333.5,0.003881
334.0,0.003893
334.5,0.005173
335.0,0.005261
335.5,0.00657
336.0,0.004545
336.5,0.004789
337.0,0.003707
337.5,0.004512
338.0,0.004936
338.5,0.006181
339.0,0.006168
339.5,0.005903
340.0,0.006412
340.5,0.005845
341.0,0.006126
341.5,0.005708
342.0,0.00685
342.5,0.006436
343.0,0.007016
343.5,0.006566
344.0,0.004511
344.5,0.004846
345.0,0.006527
345.5,0.006713
346.0,0.005734
346.5,0.006514
347.0,0.00694
347.5,0.005598
348.0,0.006443
348.5,0.006477
349.0,0.006025
349.5,0.00596
350.0,0.00738
350.5,0.007785
351.0,0.006923
351.5,0.00665
352.0,0.007198
352.5,0.005652
353.0,0.007148
353.5,0.007663
354.0,0.007972
354.5,0.008087
355.0,0.008047
355.5,0.007281
356.0,0.00763
356.5,0.006517
357.0,0.005384
357.5,0.006598
358.0,0.005234
358.5,0.004476
359.0,0.006256
359.5,0.007948
360.0,0.008436
360.5,0.006754
361.0,0.006167
361.5,0.007109
362.0,0.006153
362.5,0.00852
363.0,0.007655
363.5,0.007052
364.0,0.008628
364.5,0.007375
365.0,0.007511
365.5,0.009431
366.0,0.009997
366.5,0.009399
367.0,0.009157
367.5,0.009506
368.0,0.008319
368.5,0.008393
369.0,0.009068
369.5,0.00967
370.0,0.01031
370.5,0.008007
371.0,0.008559
371.5,0.01071
372.0,0.007111
372.5,0.008529
373.0,0.008678
373.5,0.005647
374.0,0.008208
374.5,0.006799
375.0,0.006611
375.5,0.009873
376.0,0.008187
376.5,0.008487
377.0,0.008988
377.5,0.01052
378.0,0.01141
378.5,0.01078
379.0,0.0089
379.5,0.008132
380.0,0.008457
380.5,0.01025
381.0,0.01027
381.5,0.008143
382.0,0.007233
382.5,0.006168
383.0,0.005711
383.5,0.005503
384.0,0.006072
384.5,0.008933
385.0,0.008861
385.5,0.008255
386.0,0.007071
386.5,0.009291
387.0,0.007722
387.5,0.008675
388.0,0.008012
388.5,0.007921
389.0,0.008553
389.5,0.01036
390.0,0.0104
390.5,0.009574
391.0,0.01127
391.5,0.0115
392.0,0.009689
392.5,0.008677
393.0,0.004829
393.5,0.003511
394.0,0.007146
394.5,0.009088
395.0,0.01109
395.5,0.01127
396.0,0.009774
396.5,0.005715
397.0,0.004291
397.5,0.008729
398.0,0.01223
398.5,0.01264
399.0,0.01369
399.5,0.01365
400.0,0.01418
401.0,0.014
402.0,0.01478
403.0,0.01404
404.0,0.01383
405.0,0.01383
406.0,0.01361
407.0,0.01339
408.0,0.0139
409.0,0.01488
410.0,0.013
411.0,0.01409
412.0,0.01514
413.0,0.01477
414.0,0.01495
415.0,0.01499
416.0,0.01524
417.0,0.01486
418.0,0.01459
419.0,0.01479
420.0,0.01473
421.0,0.0154
422.0,0.01463
423.0,0.01427
424.0,0.01508
425.0,0.01504
426.0,0.01465
427.0,0.01438
428.0,0.01402
429.0,0.01329
430.0,0.01163
431.0,0.01152
432.0,0.01485
433.0,0.01492
434.0,0.01386
435.0,0.01448
436.0,0.01631
437.0,0.01608
438.0,0.01462
439.0,0.01508
440.0,0.01553
441.0,0.01605
442.0,0.01719
443.0,0.01673
444.0,0.01711
445.0,0.01676
446.0,0.01602
447.0,0.01733
448.0,0.01758
449.0,0.01761
450.0,0.01806
451.0,0.01871
452.0,0.01803
453.0,0.01696
454.0,0.01771
455.0,0.01778
456.0,0.01816
457.0,0.01839
458.0,0.01769
459.0,0.01751
460.0,0.01748
461.0,0.01783
462.0,0.01795
463.0,0.01786
464.0,0.01762
465.0,0.01744
466.0,0.01762
467.0,0.01728
468.0,0.01743
469.0,0.01746
470.0,0.01687
471.0,0.01683
472.0,0.01774
473.0,0.0175
474.0,0.0175
475.0,0.01759
476.0,0.01697
477.0,0.01691
478.0,0.01726
479.0,0.01703
480.0,0.01694
481.0,0.01715
482.0,0.01718
483.0,0.01697
484.0,0.01666
485.0,0.01593
486.0,0.01397
487.0,0.01465
488.0,0.01606
489.0,0.01606
490.0,0.01683
491.0,0.01648
492.0,0.01553
493.0,0.01602
494.0,0.01617
495.0,0.01627
496.0,0.01632
497.0,0.01648
498.0,0.0156
499.0,0.01566
500.0,0.01508
501.0,0.01467
502.0,0.01432
503.0,0.01477
504.0,0.0143
505.0,0.01474
506.0,0.01519
507.0,0.01447
508.0,0.01404
509.0,0.01447
510.0,0.01441
511.0,0.01479
512.0,0.01492
513.0,0.01408
514.0,0.01392
515.0,0.01372
516.0,0.01364
517.0,0.01208
518.0,0.01266
519.0,0.01323
520.0,0.01365
521.0,0.01371
522.0,0.01364
523.0,0.01333
524.0,0.0137
525.0,0.01374
526.0,0.01302
527.0,0.01216
528.0,0.01274
529.0,0.01333
530.0,0.01305
531.0,0.01315
532.0,0.01264
533.0,0.01222
534.0,0.01256
535.0,0.01282
536.0,0.01293
537.0,0.0124
538.0,0.01259
539.0,0.01244
540.0,0.01188
541.0,0.0119
542.0,0.0122
543.0,0.012
544.0,0.01214
545.0,0.01205
546.0,0.01205
547.0,0.012
548.0,0.01182
549.0,0.01182
550.0,0.01191
551.0,0.01173
552.0,0.01176
553.0,0.01151
554.0,0.01173
555.0,0.01169
556.0,0.01148
557.0,0.01105
558.0,0.01088
559.0,0.01059
560.0,0.01064
561.0,0.01069
562.0,0.01052
563.0,0.01073
564.0,0.01037
565.0,0.01022
566.0,0.01001
567.0,0.01014
568.0,0.009986
569.0,0.009695
570.0,0.009639
571.0,0.009527
572.0,0.009703
573.0,0.009769
574.0,0.009709
575.0,0.00951
576.0,0.009417
577.0,0.009522
578.0,0.009385
579.0,0.009434
580.0,0.009627
581.0,0.009693
582.0,0.009888
583.0,0.009917
584.0,0.01
585.0,0.009752
586.0,0.009541
587.0,0.009731
588.0,0.009469
589.0,0.008345
590.0,0.008694
591.0,0.009172
592.0,0.008999
593.0,0.009081
594.0,0.008947
595.0,0.008659
596.0,0.008952
597.0,0.008778
598.0,0.00869
599.0,0.008642
600.0,0.008602
601.0,0.008496
602.0,0.008413
603.0,0.008538
604.0,0.008676
605.0,0.008636
606.0,0.008613
607.0,0.00872
608.0,0.008649
609.0,0.008692
610.0,0.00866
611.0,0.008735
612.0,0.00874
613.0,0.008657
614.0,0.008564
615.0,0.008773
616.0,0.008504
617.0,0.008504
618.0,0.008846
619.0,0.008768
620.0,0.00883
621.0,0.008843
622.0,0.008743
623.0,0.008611
624.0,0.008461
625.0,0.008444
626.0,0.00857
627.0,0.008664
628.0,0.008033
629.0,0.00844
630.0,0.00825
631.0,0.008464
632.0,0.008378
633.0,0.008649
634.0,0.008585
635.0,0.008736
636.0,0.008637
637.0,0.008796
638.0,0.008901
639.0,0.008818
640.0,0.008752
641.0,0.008761
642.0,0.008738
643.0,0.008869
644.0,0.008852
645.0,0.008863
646.0,0.008655
647.0,0.008525
648.0,0.008538
649.0,0.008368
650.0,0.008441
651.0,0.008814
652.0,0.008416
653.0,0.008702
654.0,0.008612
655.0,0.008264
656.0,0.007335
657.0,0.007542
658.0,0.008458
659.0,0.008531
660.0,0.008566
661.0,0.008633
662.0,0.008658
663.0,0.008486
664.0,0.008587
665.0,0.008595
666.0,0.008607
667.0,0.008607
668.0,0.008618
669.0,0.008753
670.0,0.008712
671.0,0.008714
672.0,0.008642
673.0,0.008775
674.0,0.008741
675.0,0.008661
676.0,0.008717
677.0,0.008629
678.0,0.00865
679.0,0.008506
680.0,0.008566
681.0,0.008497
682.0,0.008473
683.0,0.008442
684.0,0.008384
685.0,0.008448
686.0,0.008381
687.0,0.005448
688.0,0.006346
689.0,0.006363
690.0,0.006665
691.0,0.007018
692.0,0.007296
693.0,0.007241
694.0,0.007197
695.0,0.007528
696.0,0.007534
697.0,0.008071
698.0,0.007912
699.0,0.007663
700.0,0.007561
701.0,0.007453
702.0,0.0075
703.0,0.007524
704.0,0.007774
705.0,0.007766
706.0,0.007754
707.0,0.007746
708.0,0.007759
709.0,0.007771
710.0,0.007724
711.0,0.007709
712.0,0.007687
713.0,0.007564
714.0,0.007586
715.0,0.007306
716.0,0.007273
717.0,0.006192
718.0,0.00569
719.0,0.005213
720.0,0.005437
721.0,0.006022
722.0,0.006901
723.0,0.006408
724.0,0.005749
725.0,0.005636
726.0,0.005867
727.0,0.005986
728.0,0.005571
729.0,0.00579
730.0,0.006096
731.0,0.005817
732.0,0.006238
733.0,0.006619
734.0,0.006781
735.0,0.006616
736.0,0.006565
737.0,0.006585
738.0,0.006722
739.0,0.006568
740.0,0.006737
741.0,0.006656
742.0,0.006653
743.0,0.006797
744.0,0.006756
745.0,0.006742
746.0,0.00675
747.0,0.006746
748.0,0.006713
749.0,0.006621
750.0,0.006606
751.0,0.00653
752.0,0.006551
753.0,0.006576
754.0,0.00658
755.0,0.00653
756.0,0.006516
757.0,0.006512
758.0,0.006411
759.0,0.006203
760.0,0.001052
761.0,0.0005613
762.0,0.003084
763.0,0.00157
764.0,0.002322
765.0,0.003052
766.0,0.003706
767.0,0.004641
768.0,0.005388
769.0,0.005521
770.0,0.005759
771.0,0.005826
772.0,0.005829
773.0,0.005845
774.0,0.005791
775.0,0.00572
776.0,0.005762
777.0,0.005657
778.0,0.005595
779.0,0.005577
780.0,0.005527
781.0,0.005516
782.0,0.00554
783.0,0.005434
784.0,0.00545
785.0,0.005397
786.0,0.00544
787.0,0.0053
788.0,0.005218
789.0,0.005192
790.0,0.00501
791.0,0.005064
792.0,0.005018
793.0,0.00492
794.0,0.005031
795.0,0.005087
796.0,0.004862
797.0,0.004868
798.0,0.00503
799.0,0.004967
800.0,0.004839
801.0,0.004797
802.0,0.00477
803.0,0.0047
804.0,0.004701
805.0,0.004682
806.0,0.004822
807.0,0.004732
808.0,0.004711
809.0,0.004574
810.0,0.004513
811.0,0.004455
812.0,0.004294
813.0,0.004176
814.0,0.003627
815.0,0.003587
816.0,0.003341
817.0,0.003386
818.0,0.003251
819.0,0.003618
820.0,0.003424
821.0,0.004007
822.0,0.003865
823.0,0.002581
824.0,0.003727
825.0,0.003934
826.0,0.003724
827.0,0.00395
828.0,0.003292
829.0,0.003696
830.0,0.003634
831.0,0.00363
832.0,0.003503
833.0,0.003718
834.0,0.003569
835.0,0.003949
836.0,0.00374
837.0,0.003927
838.0,0.003773
839.0,0.003852
840.0,0.00393
841.0,0.003846
842.0,0.00385
843.0,0.003855
844.0,0.003775
845.0,0.003895
846.0,0.003869
847.0,0.003784
848.0,0.003733
849.0,0.003609
850.0,0.003438
851.0,0.003608
852.0,0.003572
853.0,0.003428
854.0,0.002945
855.0,0.00323
856.0,0.003518
857.0,0.003591
858.0,0.003552
859.0,0.003551
860.0,0.003549
861.0,0.00352
862.0,0.003568
863.0,0.003643
864.0,0.003453
865.0,0.003413
866.0,0.00306
867.0,0.003184
868.0,0.003454
869.0,0.003372
870.0,0.003457
871.0,0.003397
872.0,0.003374
873.0,0.003356
874.0,0.003304
875.0,0.003224
876.0,0.003245
877.0,0.003265
878.0,0.003287
879.0,0.003224
880.0,0.003141
881.0,0.003078
882.0,0.003128
883.0,0.003129
884.0,0.003101
885.0,0.003108
886.0,0.002936
887.0,0.002969
888.0,0.002993
889.0,0.003028
890.0,0.002976
891.0,0.002971
892.0,0.002848
893.0,0.00274
894.0,0.002602
895.0,0.002424
896.0,0.00227
897.0,0.001936
898.0,0.002106
899.0,0.001579
900.0,0.002137
901.0,0.001646
902.0,0.001923
903.0,0.001945
904.0,0.002481
905.0,0.002379
906.0,0.002216
907.0,0.001773
908.0,0.001811
909.0,0.001952
910.0,0.001705
911.0,0.001824
912.0,0.001919
913.0,0.001714
914.0,0.001709
915.0,0.001826
916.0,0.001549
917.0,0.001958
918.0,0.001572
919.0,0.001984
920.0,0.002019
921.0,0.002087
922.0,0.001845
923.0,0.002003
924.0,0.001872
925.0,0.001822
926.0,0.001835
927.0,0.002051
928.0,0.001478
929.0,0.001341
930.0,0.001047
931.0,0.0009888
932.0,0.0007077
933.0,0.0005722
934.0,0.0003106
935.0,0.0005818
936.0,0.0003605
937.0,0.0003636
938.0,0.0004457
939.0,0.0009272
940.0,0.001112
941.0,0.0008334
942.0,0.0009618
943.0,0.0006282
944.0,0.0006603
945.0,0.0008454
946.0,0.0004268
947.0,0.0008434
948.0,0.0006175
949.0,0.001125
950.0,0.0003082
951.0,0.001102
952.0,0.0005868
953.0,0.0007574
954.0,0.0009278
955.0,0.0007617
956.0,0.0007377
957.0,0.0005772
958.0,0.001042
959.0,0.0008215
960.0,0.0009181
961.0,0.00103
962.0,0.0009705
963.0,0.00112
964.0,0.00102
965.0,0.001106
966.0,0.001105
967.0,0.001097
968.0,0.001508
969.0,0.001546
970.0,0.001425
971.0,0.001632
972.0,0.001557
973.0,0.001328
974.0,0.001254
975.0,0.001306
976.0,0.00123
977.0,0.001418
978.0,0.001325
979.0,0.00139
980.0,0.001302
981.0,0.001569
982.0,0.001488
983.0,0.001419
984.0,0.001619
985.0,0.001462
986.0,0.001657
987.0,0.001594
988.0,0.001591
989.0,0.001641
990.0,0.00156
991.0,0.001625
992.0,0.001632
993.0,0.001572
994.0,0.001625
995.0,0.001621
996.0,0.001606
997.0,0.001605
998.0,0.001591
999.0,0.001581
1000.0,0.001563
1001.0,0.00158
1002.0,0.00151
1003.0,0.001541
1004.0,0.00149
1005.0,0.001438
1006.0,0.001488
1007.0,0.001514
1008.0,0.001498
1009.0,0.00148
1010.0,0.001468
1011.0,0.001484
1012.0,0.001465
1013.0,0.001472
1014.0,0.001457
1015.0,0.001442
1016.0,0.001429
1017.0,0.001426
1018.0,0.001419
1019.0,0.001375
1020.0,0.001401
1021.0,0.001395
1022.0,0.001376
1023.0,0.001386
1024.0,0.001356
1025.0,0.001377
1026.0,0.001363
1027.0,0.001358
1028.0,0.001349
1029.0,0.001327
1030.0,0.001333
1031.0,0.001323
1032.0,0.001315
1033.0,0.001291
1034.0,0.001286
1035.0,0.001285
1036.0,0.001286
1037.0,0.001261
1038.0,0.001262
1039.0,0.001256
1040.0,0.001246
1041.0,0.001246
1042.0,0.001233
1043.0,0.001224
1044.0,0.001223
1045.0,0.001201
1046.0,0.001183
1047.0,0.001189
1048.0,0.001191
1049.0,0.001181
1050.0,0.001171
1051.0,0.001165
1052.0,0.001155
1053.0,0.001141
1054.0,0.001138
1055.0,0.001134
1056.0,0.001125
1057.0,0.001116
1058.0,0.001084
1059.0,0.00108
1060.0,0.001074
1061.0,0.001069
1062.0,0.00107
1063.0,0.001054
1064.0,0.001063
1065.0,0.001049
1066.0,0.001027
1067.0,0.001036
1068.0,0.001009
1069.0,0.0009756
1070.0,0.001006
1071.0,0.001021
1072.0,0.001003
1073.0,0.0009857
1074.0,0.001013
1075.0,0.0009474
1076.0,0.001005
1077.0,0.0009776
1078.0,0.0009513
1079.0,0.0009818
1080.0,0.0009514
1081.0,0.0009123
1082.0,0.0009347
1083.0,0.0009363
1084.0,0.0009003
1085.0,0.0009393
1086.0,0.0008438
1087.0,0.0008724
1088.0,0.0009183
1089.0,0.0008752
1090.0,0.0008506
1091.0,0.0009013
1092.0,0.0008982
1093.0,0.0007404
1094.0,0.0008124
1095.0,0.0007644
1096.0,0.0007261
1097.0,0.0008638
1098.0,0.0007099
1099.0,0.0007368
1100.0,0.0006781
1101.0,0.0006867
1102.0,0.0006509
1103.0,0.0006394
1104.0,0.0006401
1105.0,0.0007016
1106.0,0.0005265
1107.0,0.0006612
1108.0,0.0005518
1109.0,0.0005517
1110.0,0.0006442
1111.0,0.0004307
1112.0,0.0005429
1113.0,0.00034
1114.0,0.0003789
1115.0,0.0003128
1116.0,0.0002475
1117.0,8.904e-05
1118.0,0.0002679
1119.0,0.0001312
1120.0,0.0001645
1121.0,0.0002184
1122.0,9.049e-05
1123.0,0.0001473
1124.0,0.0001239
1125.0,0.0001614
1126.0,5.485e-05
1127.0,0.0001809
1128.0,0.0001066
1129.0,0.000113
1130.0,7.359e-05
1131.0,0.0003414
1132.0,0.0002664
1133.0,0.0001667
1134.0,4.154e-05
1135.0,1.557e-05
1136.0,0.0001371
1137.0,0.0003282
1138.0,0.0002301
1139.0,0.000345
1140.0,0.0002862
1141.0,0.0002165
1142.0,0.0002489
1143.0,0.0003534
1144.0,0.0001216
1145.0,0.0001545
1146.0,0.0001661
1147.0,5.712e-05
1148.0,0.0003008
1149.0,0.0002385
1150.0,0.0001284
1151.0,0.0002187
1152.0,0.0002693
1153.0,0.0002623
1154.0,0.0001452
1155.0,0.0003413
1156.0,0.0003059
1157.0,0.0003431
1158.0,0.0003382
1159.0,0.0003643
1160.0,0.0003099
1161.0,0.0003832
1162.0,0.0003847
1163.0,0.0005223
1164.0,0.0004456
1165.0,0.0004156
1166.0,0.0004148
1167.0,0.0004505
1168.0,0.0004538
1169.0,0.0004646
1170.0,0.0005068
1171.0,0.0004902
1172.0,0.0005041
1173.0,0.0004991
1174.0,0.000351
1175.0,0.0004879
1176.0,0.0005447
1177.0,0.0005138
1178.0,0.000379
1179.0,0.000542
1180.0,0.0004783
1181.0,0.0004867
1182.0,0.0003297
1183.0,0.0004776
1184.0,0.0004477
1185.0,0.0004271
1186.0,0.0005098
1187.0,0.0004795
1188.0,0.0003289
1189.0,0.000445
1190.0,0.0004936
1191.0,0.0004612
1192.0,0.0004982
1193.0,0.0004769
1194.0,0.0004879
1195.0,0.0004554
1196.0,0.000435
1197.0,0.000484
1198.0,0.0004415
1199.0,0.0003669
1200.0,0.0004562
1201.0,0.0004351
1202.0,0.0004361
1203.0,0.0004268
1204.0,0.0003757
1205.0,0.0004461
1206.0,0.0004943
1207.0,0.0004262
1208.0,0.0004205
1209.0,0.0004282
1210.0,0.0004492
1211.0,0.0004235
1212.0,0.0004103
1213.0,0.0004638
1214.0,0.0004192
1215.0,0.0004089
1216.0,0.0004603
1217.0,0.0004446
1218.0,0.0004535
1219.0,0.0004453
1220.0,0.0004509
1221.0,0.0004563
1222.0,0.0004414
1223.0,0.0004352
1224.0,0.0004291
1225.0,0.0004454
1226.0,0.0004502
1227.0,0.0004073
1228.0,0.0004525
1229.0,0.0004455
1230.0,0.0004356
1231.0,0.0004523
1232.0,0.0004482
1233.0,0.0004228
1234.0,0.0004498
1235.0,0.0004437
1236.0,0.0004471
1237.0,0.0004357
1238.0,0.0004428
1239.0,0.0004358
1240.0,0.0004366
1241.0,0.0004311
1242.0,0.0004305
1243.0,0.000426
1244.0,0.0004266
1245.0,0.0004277
1246.0,0.0004241
1247.0,0.0004202
1248.0,0.0004175
1249.0,0.0004185
1250.0,0.0004138
1251.0,0.0004055
1252.0,0.0004066
1253.0,0.0003981
1254.0,0.0003909
1255.0,0.0004016
1256.0,0.0003826
1257.0,0.0003782
1258.0,0.0003886
1259.0,0.0003658
1260.0,0.0003673
1261.0,0.0003402
1262.0,0.0003273
1263.0,0.000327
1264.0,0.0002991
1265.0,0.0003229
1266.0,0.0003085
1267.0,0.0003138
1268.0,0.0002955
1269.0,0.0001832
1270.0,0.0003094
1271.0,0.0003296
1272.0,0.0003298
1273.0,0.0003248
1274.0,0.0003258
1275.0,0.0003301
1276.0,0.0003336
1277.0,0.0003366
1278.0,0.0003446
1279.0,0.0003408
1280.0,0.0003361
1281.0,0.0003216
1282.0,0.0003113
1283.0,0.0003336
1284.0,0.000341
1285.0,0.0003425
1286.0,0.0003472
1287.0,0.0003394
1288.0,0.0003388
1289.0,0.0003211
1290.0,0.0003339
1291.0,0.0003387
1292.0,0.0003086
1293.0,0.0003284
1294.0,0.0003241
1295.0,0.0003171
1296.0,0.0002996
1297.0,0.0002815
1298.0,0.0003054
1299.0,0.0003219
1300.0,0.0002638
1301.0,0.0002706
1302.0,0.0003008
1303.0,0.0002605
1304.0,0.0002171
1305.0,0.0002907
1306.0,0.0002879
1307.0,0.0002208
1308.0,0.0002552
1309.0,0.0002823
1310.0,0.0002149
1311.0,0.0002433
1312.0,0.0002345
1313.0,0.0002279
1314.0,0.0002018
1315.0,0.0001986
1316.0,0.0002347
1317.0,0.0002225
1318.0,0.0002416
1319.0,0.0001851
1320.0,0.0001782
1321.0,0.0002081
1322.0,0.0002083
1323.0,0.0001558
1324.0,0.0001789
1325.0,0.0002229
1326.0,0.0001903
1327.0,0.0001806
1328.0,0.0001547
1329.0,0.0001157
1330.0,0.0001502
1331.0,9.039e-05
1332.0,9.307e-05
1333.0,0.0001292
1334.0,0.0001092
1335.0,0.0001497
1336.0,0.000118
1337.0,0.000104
1338.0,0.0001123
1339.0,0.0001114
1340.0,0.0001081
1341.0,0.0001052
1342.0,0.0001102
1343.0,7.424e-05
1344.0,4.434e-05
1345.0,6.377e-05
1346.0,3.146e-05
1347.0,3.187e-05
1348.0,2.055e-06
1349.0,7.372e-06
1350.0,7.642e-06
1351.0,1.847e-06
1352.0,4.97e-07
1353.0,2.53e-08
1354.0,8.695e-08
1355.0,7.002e-10
1356.0,1.225e-08
1357.0,1.862e-08
1358.0,8.222e-10
1359.0,1.036e-10
1360.0,3.744e-10
1361.0,4.188e-13
1362.0,1.146e-15
1363.0,5.035e-10
1364.0,2.079e-10
1365.0,4.001e-16
1366.0,2.182e-09
1367.0,8.909e-10
1368.0,3.09e-18
1369.0,7.662e-11
1370.0,3.774e-11
1371.0,2.139e-12
1372.0,4.833e-10
1373.0,9.739e-09
1374.0,4.517e-08
1375.0,8.193e-08
1376.0,7.348e-08
1377.0,3.356e-08
1378.0,3.282e-07
1379.0,1.403e-08
1380.0,2.016e-08
1381.0,5.251e-10
1382.0,4.239e-10
1383.0,6.337e-12
1384.0,8.31e-11
1385.0,3.974e-10
1386.0,3.738e-10
1387.0,4.522e-08
1388.0,8.894e-10
1389.0,1.527e-07
1390.0,1.311e-07
1391.0,8.716e-08
1392.0,5.65e-09
1393.0,2.993e-08
1394.0,1.543e-08
1395.0,1.131e-10
1396.0,5.465e-13
1397.0,1.179e-08
1398.0,3.486e-07
1399.0,2.205e-07
1400.0,2.337e-13
1401.0,9.698e-13
1402.0,6.109e-07
1403.0,7.653e-07
1404.0,2.325e-07
1405.0,5.357e-11
1406.0,6.01e-07
1407.0,5.297e-08
1408.0,4.891e-07
1409.0,1.63e-07
1410.0,1.305e-07
1411.0,6.583e-07
1412.0,8.882e-07
1413.0,9.245e-06
1414.0,1.019e-07
1415.0,4.868e-08
1416.0,1.528e-05
1417.0,4.513e-06
1418.0,5.11e-06
1419.0,7.865e-07
1420.0,3.106e-06
1421.0,3.35e-06
1422.0,1.965e-05
1423.0,3.769e-06
1424.0,7.074e-06
1425.0,1.033e-05
1426.0,1.183e-05
1427.0,2.2e-05
1428.0,1.54e-06
1429.0,1.62e-05
1430.0,2.796e-05
1431.0,3.074e-05
1432.0,1.197e-06
1433.0,1.929e-05
1434.0,9.703e-06
1435.0,9.402e-06
1436.0,1.852e-05
1437.0,1.416e-05
1438.0,5.845e-06
1439.0,2.517e-05
1440.0,1.879e-05
1441.0,1.406e-05
1442.0,1.557e-05
1443.0,1.987e-05
1444.0,2.766e-05
1445.0,2.125e-05
1446.0,9.425e-06
1447.0,1.486e-05
1448.0,5.263e-05
1449.0,4.523e-05
1450.0,1.095e-05
1451.0,4.311e-06
1452.0,2.662e-05
1453.0,3.509e-05
1454.0,6.171e-05
1455.0,2.841e-05
1456.0,3.787e-05
1457.0,5.162e-05
1458.0,6.165e-05
1459.0,7.259e-05
1460.0,3.718e-05
1461.0,3.828e-05
1462.0,5.685e-05
1463.0,1.78e-05
1464.0,6.785e-05
1465.0,4.06e-05
1466.0,2.689e-05
1467.0,1.376e-05
1468.0,3.182e-05
1469.0,3.948e-05
1470.0,1.897e-05
1471.0,6.727e-06
1472.0,1.803e-05
1473.0,2.803e-05
1474.0,4.159e-05
1475.0,7.988e-05
1476.0,2.788e-05
1477.0,2.785e-05
1478.0,2.601e-05
1479.0,5.07e-05
1480.0,2.385e-05
1481.0,4.8e-05
1482.0,2.332e-05
1483.0,6.243e-05
1484.0,5.842e-05
1485.0,5.157e-05
1486.0,5.043e-05
1487.0,2.248e-05
1488.0,4.017e-05
1489.0,8.016e-05
1490.0,7.4e-05
1491.0,8.402e-05
1492.0,6.836e-05
1493.0,7.553e-05
1494.0,8.558e-05
1495.0,7.554e-05
1496.0,7.038e-05
1497.0,9.801e-05
1498.0,7.91e-05
1499.0,9.229e-05
1500.0,0.0001078
1501.0,0.0001127
1502.0,9.489e-05
1503.0,7.934e-05
1504.0,6.288e-05
1505.0,7.608e-05
1506.0,0.000112
1507.0,0.0001074
1508.0,0.0001023
1509.0,7.669e-05
1510.0,0.0001158
1511.0,0.0001106
1512.0,0.0001107
1513.0,9.941e-05
1514.0,9.258e-05
1515.0,0.0001133
1516.0,0.0001077
1517.0,0.0001038
1518.0,0.000104
1519.0,0.0001005
1520.0,0.0001088
1521.0,0.0001189
1522.0,0.0001107
1523.0,0.0001203
1524.0,0.0001148
1525.0,0.000108
1526.0,0.0001096
1527.0,0.0001092
1528.0,0.0001175
1529.0,0.0001107
1530.0,0.0001075
1531.0,0.000111
1532.0,0.0001171
1533.0,0.0001173
1534.0,0.0001152
1535.0,0.0001136
1536.0,0.0001156
1537.0,0.0001132
1538.0,0.0001143
1539.0,0.0001119
1540.0,0.0001122
1541.0,0.0001126
1542.0,0.0001109
1543.0,0.0001131
1544.0,0.0001114
1545.0,0.0001135
1546.0,0.0001107
1547.0,0.0001094
1548.0,0.0001091
1549.0,0.0001101
1550.0,0.0001089
1551.0,0.0001092
1552.0,0.0001082
1553.0,0.0001075
1554.0,0.0001061
1555.0,0.0001063
1556.0,0.0001058
1557.0,0.0001069
1558.0,0.0001061
1559.0,0.0001051
1560.0,0.0001055
1561.0,0.000106
1562.0,0.0001042
1563.0,0.0001031
1564.0,0.0001032
1565.0,0.0001035
1566.0,0.0001017
1567.0,0.0001016
1568.0,0.0001002
1569.0,0.0001009
1570.0,0.0001014
1571.0,0.0001018
1572.0,0.0001009
1573.0,9.98e-05
1574.0,9.585e-05
1575.0,9.44e-05
1576.0,9.229e-05
1577.0,8.966e-05
1578.0,9.369e-05
1579.0,9.391e-05
1580.0,9.461e-05
1581.0,9.3e-05
1582.0,9.098e-05
1583.0,9.105e-05
1584.0,9.317e-05
1585.0,9.409e-05
1586.0,9.271e-05
1587.0,9.087e-05
1588.0,8.868e-05
1589.0,8.577e-05
1590.0,8.725e-05
1591.0,8.931e-05
1592.0,9.141e-05
1593.0,9.287e-05
1594.0,9.237e-05
1595.0,9.105e-05
1596.0,8.801e-05
1597.0,8.967e-05
1598.0,9.116e-05
1599.0,8.998e-05
1600.0,8.931e-05
1601.0,8.763e-05
1602.0,8.751e-05
1603.0,8.854e-05
1604.0,8.76e-05
1605.0,8.741e-05
1606.0,8.617e-05
1607.0,8.675e-05
1608.0,8.606e-05
1609.0,8.389e-05
1610.0,8.191e-05
1611.0,8.314e-05
1612.0,8.402e-05
1613.0,8.37e-05
1614.0,8.366e-05
1615.0,8.161e-05
1616.0,8.014e-05
1617.0,8.121e-05
1618.0,8.272e-05
1619.0,8.063e-05
1620.0,7.912e-05
1621.0,7.972e-05
1622.0,8.075e-05
1623.0,8.178e-05
1624.0,8.043e-05
1625.0,7.986e-05
1626.0,7.986e-05
1627.0,8.039e-05
1628.0,7.979e-05
1629.0,7.908e-05
1630.0,7.832e-05
1631.0,7.73e-05
1632.0,7.721e-05
1633.0,7.386e-05
1634.0,7.629e-05
1635.0,7.404e-05
1636.0,7.388e-05
1637.0,7.319e-05
1638.0,6.732e-05
1639.0,7.124e-05
1640.0,6.649e-05
1641.0,7.013e-05
1642.0,7.175e-05
1643.0,6.548e-05
1644.0,7.161e-05
1645.0,6.789e-05
1646.0,6.524e-05
1647.0,7.21e-05
1648.0,6.474e-05
1649.0,6.942e-05
1650.0,6.994e-05
1651.0,6.266e-05
1652.0,6.861e-05
1653.0,6.965e-05
1654.0,6.391e-05
1655.0,6.909e-05
1656.0,6.696e-05
1657.0,6.765e-05
1658.0,6.916e-05
1659.0,6.822e-05
1660.0,6.862e-05
1661.0,6.825e-05
1662.0,6.545e-05
1663.0,6.775e-05
1664.0,6.688e-05
1665.0,6.124e-05
1666.0,4.908e-05
1667.0,6.043e-05
1668.0,6.397e-05
1669.0,6.444e-05
1670.0,6.571e-05
1671.0,6.329e-05
1672.0,6.277e-05
1673.0,6.415e-05
1674.0,6.185e-05
1675.0,6.101e-05
1676.0,6.177e-05
1677.0,6.098e-05
1678.0,5.852e-05
1679.0,6.089e-05
1680.0,5.796e-05
1681.0,5.53e-05
1682.0,5.935e-05
1683.0,6.055e-05
1684.0,5.391e-05
1685.0,6.085e-05
1686.0,6.053e-05
1687.0,5.702e-05
1688.0,5.962e-05
1689.0,5.898e-05
1690.0,5.837e-05
1691.0,5.19e-05
1692.0,5.761e-05
1693.0,5.984e-05
1694.0,5.645e-05
1695.0,5.862e-05
1696.0,5.875e-05
1697.0,4.748e-05
1698.0,5.753e-05
1699.0,5.678e-05
1700.0,5.459e-05
1702.0,5.572e-05
1705.0,5.309e-05
1710.0,4.964e-05
1715.0,4.948e-05
1720.0,4.854e-05
1725.0,4.396e-05
1730.0,4.361e-05
1735.0,3.997e-05
1740.0,4.016e-05
1745.0,3.758e-05
1750.0,3.889e-05
1755.0,3.567e-05
1760.0,3.643e-05
1765.0,2.946e-05
1770.0,3.098e-05
1775.0,2.454e-05
1780.0,2.071e-05
1785.0,1.534e-05
1790.0,1.758e-05
1795.0,8.544e-06
1800.0,5.878e-06
1805.0,2.334e-06
1810.0,1.515e-06
1815.0,4.384e-07
1820.0,1.097e-07
1825.0,1.431e-07
1830.0,3.489e-10
1835.0,5.283e-10
1840.0,3.083e-12
1845.0,3.297e-10
1850.0,1.488e-10
1855.0,1.422e-11
1860.0,8.152e-10
1865.0,1.136e-09
1870.0,6.218e-15
1875.0,1.124e-14
1880.0,5.984e-09
1885.0,3.189e-09
1890.0,1.749e-08
1895.0,1.015e-08
1900.0,4.339e-11
1905.0,2.955e-11
1910.0,1.431e-09
1915.0,1.395e-09
1920.0,3.658e-08
1925.0,8.593e-08
1930.0,4.963e-08
1935.0,3.783e-07
1940.0,3.757e-07
1945.0,1.548e-06
1950.0,3.009e-06
1955.0,2.683e-06
1960.0,4.718e-06
1965.0,6.854e-06
1970.0,9.59e-06
1975.0,1.078e-05
1980.0,1.071e-05
1985.0,1.144e-05
1990.0,1.183e-05
1995.0,1.235e-05
2000.0,1.301e-05
2005.0,1.079e-05
2010.0,1.567e-05
2015.0,1.194e-05
2020.0,1.278e-05
2025.0,1.396e-05
2030.0,1.262e-05
2035.0,1.388e-05
2040.0,1.3e-05
2045.0,1.332e-05
2050.0,1.359e-05
2055.0,1.275e-05
2060.0,1.218e-05
2065.0,1.238e-05
2070.0,1.206e-05
2075.0,1.239e-05
2080.0,1.198e-05
2085.0,1.179e-05
2090.0,1.183e-05
2095.0,1.133e-05
2100.0,1.038e-05
2105.0,1.121e-05
2110.0,1.055e-05
2115.0,1.082e-05
2120.0,9.949e-06
2125.0,1.008e-05
2130.0,1.018e-05
2135.0,1.018e-05
2140.0,1.018e-05
2145.0,9.976e-06
2150.0,9.102e-06
2155.0,9.007e-06
2160.0,8.864e-06
2165.0,7.988e-06
2170.0,8.498e-06
2175.0,8.141e-06
2180.0,8.342e-06
2185.0,7.332e-06
2190.0,7.905e-06
2195.0,7.741e-06
2200.0,6.605e-06
2205.0,6.987e-06
2210.0,7.68e-06
2215.0,7.185e-06
2220.0,7.297e-06
2225.0,6.982e-06
2230.0,6.959e-06
2235.0,6.699e-06
2240.0,6.56e-06
2245.0,6.194e-06
2250.0,6.337e-06
2255.0,5.785e-06
2260.0,5.642e-06
2265.0,5.775e-06
2270.0,5.343e-06
2275.0,5.211e-06
2280.0,5.458e-06
2285.0,5.025e-06
2290.0,4.987e-06
2295.0,4.806e-06
2300.0,4.504e-06
2305.0,4.507e-06
2310.0,4.975e-06
2315.0,4.352e-06
2320.0,3.771e-06
2325.0,4.214e-06
2330.0,4.159e-06
2335.0,4.234e-06
2340.0,3.215e-06
2345.0,3.607e-06
2350.0,2.825e-06
2355.0,3.263e-06
2360.0,3.442e-06
2365.0,3.387e-06
2370.0,1.94e-06
2375.0,2.918e-06
2380.0,2.774e-06
2385.0,1.95e-06
2390.0,2.311e-06
2395.0,2.532e-06
2400.0,2.756e-06
2405.0,2.065e-06
2410.0,2.052e-06
2415.0,1.624e-06
2420.0,1.562e-06
2425.0,1.957e-06
2430.0,2.665e-06
2435.0,8.234e-07
2440.0,2.56e-06
2445.0,1.156e-06
2450.0,7.264e-07
2455.0,1.382e-06
2460.0,1.856e-06
2465.0,1.298e-06
2470.0,8.576e-07
2475.0,8.307e-07
2480.0,3.884e-07
2485.0,2.529e-07
2490.0,1.455e-07
2495.0,1.258e-07
2500.0,3.122e-07
2505.0,6.347e-08
2510.0,9.333e-08
2515.0,1.977e-08
2520.0,1.111e-08
2525.0,1.267e-09
2530.0,8.823e-12
2535.0,1.951e-12
2540.0,4.629e-12
2545.0,3.59e-16
2550.0,1.456e-18
2555.0,6.986e-15
2560.0,2.097e-16
2565.0,4.6940000000000007e-20
2570.0,1.3979999999999999e-24
2575.0,8.842e-35
2580.0,9.219999999999999e-29
2585.0,1.927e-42
2590.0,1.202e-38
2595.0,2.34e-40
2600.0,1.926e-35
2605.0,2.129e-42
2610.0,7.327000000000001e-42
2615.0,0.0
2620.0,6.457e-36
2625.0,1.182e-35
2630.0,0.0
2635.0,6.1579999999999995e-22
2640.0,1.333e-22
2645.0,5.81e-25
2650.0,5.788000000000001e-26
2655.0,6.96e-35
2660.0,5.86e-32
2665.0,5.605e-45
2670.0,0.0
2675.0,2.803e-44
2680.0,1.1880000000000001e-30
2685.0,1.1350000000000002e-31
2690.0,4.247000000000001e-31
2695.0,1.6659999999999998e-33
2700.0,4.853e-29
2705.0,1.376e-26
2710.0,1.0960000000000001e-31
2715.0,1.384e-29
2720.0,0.0
2725.0,3.099e-27
2730.0,9.035000000000001e-25
2735.0,1.0300000000000001e-26
2740.0,1.861e-32
2745.0,2.4e-27
2750.0,1.3450000000000002e-26
2755.0,2.164e-28
2760.0,3.242e-23
2765.0,1.522e-29
2770.0,7.478e-27
2775.0,9.231e-24
2780.0,4.2980000000000004e-21
2785.0,1.614e-20
2790.0,3.679e-18
2795.0,8.095e-19
2800.0,2.584e-15
2805.0,4.832e-17
2810.0,1.937e-13
2815.0,5.779e-14
2820.0,7.061e-16
2825.0,6.198e-12
2830.0,1.347e-10
2835.0,1.855e-15
2840.0,3.97e-12
2845.0,1.374e-09
2850.0,2.378e-11
2855.0,9.499e-12
2860.0,4.938e-10
2865.0,3.641e-09
2870.0,9.235e-11
2875.0,8.862e-09
2880.0,5.585e-09
2885.0,9.201e-09
2890.0,3.911e-09
2895.0,6.667e-08
2900.0,1.858e-08
2905.0,2.151e-09
2910.0,6.8e-08
2915.0,2.886e-08
2920.0,7.162e-08
2925.0,2.553e-08
2930.0,1.545e-07
2935.0,1.704e-07
2940.0,3.814e-08
2945.0,3.276e-08
2950.0,1.322e-07
2955.0,5.887e-08
2960.0,1.168e-07
2965.0,1.977e-07
2970.0,7.749e-09
2975.0,1.963e-08
2980.0,3.054e-08
2985.0,1.797e-07
2990.0,2.721e-07
2995.0,1.034e-07
3000.0,1.965e-07
3005.0,6.688e-08
3010.0,1.72e-07
3015.0,1.333e-07
3020.0,1.205e-08
3025.0,1.837e-07
3030.0,1.447e-07
3035.0,5.503e-08
3040.0,4.301e-08
3045.0,9.237e-08
3050.0,2.094e-08
3055.0,5.122e-09
3060.0,1.438e-07
3065.0,6.087e-08
3070.0,3.42e-08
3075.0,1.34e-07
3080.0,7.785e-08
3085.0,3.438e-08
3090.0,4.675e-08
3095.0,1.15e-08
3100.0,9.343e-08
3105.0,1.751e-08
3110.0,1.466e-08
3115.0,4.398e-08
3120.0,2.155e-07
3125.0,6.329e-08
3130.0,1.257e-07
3135.0,2.518e-07
3140.0,6.696e-08
3145.0,6.566e-08
3150.0,1.386e-07
3155.0,1.166e-07
3160.0,1.934e-07
3165.0,3.035e-07
3170.0,2.687e-07
3175.0,1.888e-07
3180.0,2.228e-07
3185.0,1.559e-07
3190.0,8.171e-08
3195.0,4.537e-08
3200.0,6.403e-09
3205.0,4.183e-09
3210.0,1.743e-09
3215.0,7.084e-09
3220.0,2.487e-08
3225.0,2.86e-09
3230.0,4.75e-09
3235.0,1.331e-07
3240.0,6.052e-08
3245.0,1.149e-08
3250.0,4.238e-08
3255.0,1.815e-07
3260.0,1.813e-08
3265.0,3.925e-08
3270.0,1.848e-08
3275.0,1.115e-07
3280.0,4.737e-08
3285.0,2.051e-07
3290.0,1.543e-07
3295.0,1.899e-08
3300.0,2.822e-08
3305.0,6.48e-08
3310.0,6.154e-08
3315.0,8.92e-11
3320.0,5.62e-10
3325.0,5.168e-08
3330.0,7.85e-08
3335.0,1.519e-07
3340.0,5.597e-08
3345.0,5.436e-08
3350.0,1.355e-07
3355.0,5.499e-08
3360.0,8.44e-08
3365.0,1.19e-07
3370.0,5.764e-08
3375.0,1.396e-07
3380.0,7.586e-08
3385.0,1.202e-07
3390.0,1.579e-07
3395.0,1.531e-07
3400.0,2.065e-07
3405.0,6.322e-08
3410.0,1.11e-07
3415.0,1.079e-07
3420.0,2.151e-07
3425.0,1.54e-07
3430.0,1.299e-07
3435.0,1.846e-07
3440.0,1.183e-07
3445.0,1.758e-07
3450.0,1.716e-07
3455.0,1.224e-07
3460.0,1.949e-07
3465.0,1.443e-07
3470.0,1.882e-07
3475.0,1.632e-07
3480.0,1.671e-07
3485.0,1.815e-07
3490.0,1.514e-07
3495.0,1.82e-07
3500.0,1.757e-07
3505.0,1.733e-07
3510.0,1.751e-07
3515.0,1.66e-07
3520.0,1.759e-07
3525.0,1.632e-07
3530.0,1.576e-07
3535.0,1.288e-07
3540.0,1.217e-07
3545.0,1.286e-07
3550.0,1.446e-07
3555.0,1.213e-07
3560.0,1.474e-07
3565.0,1.467e-07
3570.0,1.107e-07
3575.0,1.141e-07
3580.0,1.369e-07
3585.0,1.194e-07
3590.0,1.245e-07
3595.0,1.27e-07
3600.0,1.355e-07
3605.0,1.349e-07
3610.0,1.221e-07
3615.0,1.222e-07
3620.0,1.521e-07
3625.0,1.296e-07
3630.0,1.26e-07
3635.0,1.296e-07
3640.0,1.463e-07
3645.0,1.31e-07
3650.0,1.244e-07
3655.0,1.359e-07
3660.0,1.346e-07
3665.0,1.233e-07
3670.0,9.273e-08
3675.0,5.278e-08
3680.0,9.593e-08
3685.0,1.1e-07
3690.0,1.133e-07
3695.0,1.184e-07
3700.0,1.285e-07
3705.0,1.259e-07
3710.0,1.068e-07
3715.0,1.049e-07
3720.0,1.199e-07
3725.0,1.23e-07
3730.0,1.043e-07
3735.0,9.407e-08
3740.0,9.664e-08
3745.0,1.144e-07
3750.0,1.023e-07
3755.0,9.828e-08
3760.0,9.617e-08
3765.0,9.213e-08
3770.0,9.898e-08
3775.0,9.731e-08
3780.0,1.034e-07
3785.0,9.326e-08
3790.0,8.086e-08
3795.0,9.352e-08
3800.0,1.058e-07
3805.0,9.82e-08
3810.0,8.524e-08
3815.0,7.903e-08
3820.0,1.012e-07
3825.0,9.852e-08
3830.0,9.972e-08
3835.0,7.646e-08
3840.0,9.134e-08
3845.0,8.823e-08
3850.0,8.846e-08
3855.0,8.392e-08
3860.0,7.724e-08
3865.0,7.755e-08
3870.0,6.917e-08
3875.0,6.199e-08
3880.0,5.939e-08
3885.0,6.148e-08
3890.0,6.219e-08
3895.0,6.865e-08
3900.0,7.325e-08
3905.0,7.268e-08
3910.0,6.395e-08
3915.0,6.192e-08
3920.0,6.156e-08
3925.0,6.015e-08
3930.0,6.216e-08
3935.0,6.485e-08
3940.0,6.547e-08
3945.0,6.647e-08
3950.0,6.733e-08
3955.0,6.784e-08
3960.0,6.824e-08
3965.0,6.857e-08
3970.0,6.742e-08
3975.0,6.516e-08
3980.0,6.385e-08
3985.0,6.383e-08
3990.0,6.262e-08
3995.0,6.083e-08
4000.0,5.796e-08
