interpolation:linear
wavelength,value
280.0,1.02e-21
280.5,3.284e-20
281.0,1.747e-19
281.5,5.253e-19
282.0,9.408e-19
282.5,2.338e-18
283.0,7.366e-18
283.5,1.196e-17
284.0,1.937e-16
284.5,5.603e-16
285.0,1.095e-15
285.5,5.289e-15
286.0,2.114e-14
286.5,9.363e-14
287.0,2.659e-13
287.5,1.013e-12
288.0,3.135e-12
288.5,9.783e-12
289.0,2.655e-11
289.5,8.12e-11
290.0,2.269e-10
290.5,4.647e-10
291.0,1.001e-09
291.5,2.88e-09
292.0,6.003e-09
292.5,8.625e-09
293.0,1.903e-08
293.5,4.792e-08
294.0,7.66e-08
294.5,1.007e-07
295.0,1.732e-07
295.5,3.875e-07
296.0,6.925e-07
296.5,9.915e-07
297.0,1.371e-06
297.5,3.827e-06
298.0,6.28e-06
298.5,6.547e-06
299.0,1.502e-05
299.5,2.715e-05
300.0,3.158e-05
300.5,4.884e-05
301.0,0.0001005
301.5,0.0001857
302.0,0.0001738
302.5,0.0003427
303.0,0.0006236
303.5,0.0007948
304.0,0.0007597
304.5,0.001192
305.0,0.001945
305.5,0.002334
306.0,0.002297
306.5,0.002946
307.0,0.00469
307.5,0.006682
308.0,0.007121
308.5,0.008694
309.0,0.008871
309.5,0.01042
310.0,0.01059
310.5,0.01722
311.0,0.02182
311.5,0.02111
312.0,0.02164
312.5,0.02676
313.0,0.02923
313.5,0.02803
314.0,0.03578
314.5,0.03271
315.0,0.04311
315.5,0.03535
316.0,0.03166
316.5,0.04647
317.0,0.05749
317.5,0.05921
318.0,0.04686
318.5,0.06007
319.0,0.07237
319.5,0.05711
320.0,0.0685
320.5,0.08866
321.0,0.08148
321.5,0.07815
322.0,0.07999
322.5,0.0695
323.0,0.07069
323.5,0.08862
324.0,0.1035
324.5,0.1039
325.0,0.08822
325.5,0.1154
326.0,0.1414
326.5,0.1428
327.0,0.1413
327.5,0.1353
328.0,0.1183
328.5,0.1262
329.0,0.1531
329.5,0.1742
330.0,0.1745
330.5,0.1374
331.0,0.139
331.5,0.1421
332.0,0.1553
332.5,0.1542
333.0,0.1527
333.5,0.1362
334.0,0.1388
334.5,0.1617
335.0,0.1527
335.5,0.1799
336.0,0.1241
336.5,0.1426
337.0,0.116
337.5,0.1435
338.0,0.1412
338.5,0.1642
339.0,0.1616
339.5,0.1552
340.0,0.1802
340.5,0.1621
341.0,0.1587
341.5,0.1446
342.0,0.1722
342.5,0.1604
343.0,0.1762
343.5,0.1657
344.0,0.1216
344.5,0.1235
345.0,0.1619
345.5,0.1645
346.0,0.1392
346.5,0.1571
347.0,0.1683
347.5,0.1358
348.0,0.154
348.5,0.1532
349.0,0.1417
349.5,0.1398
350.0,0.1724
350.5,0.1812
351.0,0.1615
351.5,0.1569
352.0,0.1676
352.5,0.1302
353.0,0.1634
353.5,0.1741
354.0,0.1801
354.5,0.1821
355.0,0.1809
355.5,0.1629
356.0,0.1698
356.5,0.1445
357.0,0.119
357.5,0.1452
358.0,0.1147
358.5,0.09768
359.0,0.1362
359.5,0.173
360.0,0.1828
360.5,0.1456
361.0,0.1323
361.5,0.1518
362.0,0.1308
362.5,0.1805
363.0,0.1615
363.5,0.1483
364.0,0.1808
364.5,0.154
365.0,0.1563
365.5,0.1955
366.0,0.2065
366.5,0.1934
367.0,0.1877
367.5,0.1941
368.0,0.1693
368.5,0.1702
369.0,0.1832
369.5,0.1947
370.0,0.2068
370.5,0.16
371.0,0.1704
371.5,0.2124
372.0,0.1405
372.5,0.1679
373.0,0.1702
373.5,0.1104
374.0,0.1598
374.5,0.1319
375.0,0.1278
375.5,0.1902
376.0,0.1571
376.5,0.1622
377.0,0.1712
377.5,0.1996
378.0,0.2156
378.5,0.2031
379.0,0.167
379.5,0.152
380.0,0.1574
380.5,0.19
381.0,0.1897
381.5,0.1498
382.0,0.1326
382.5,0.1126
383.0,0.1039
383.5,0.09971
384.0,0.1096
384.5,0.1607
385.0,0.1588
385.5,0.1474
386.0,0.1258
386.5,0.1646
387.0,0.1363
387.5,0.1525
388.0,0.1403
388.5,0.1382
389.0,0.1487
389.5,0.1794
390.0,0.1794
390.5,0.1645
391.0,0.193
391.5,0.1961
392.0,0.1646
392.5,0.1468
393.0,0.08141
393.5,0.05897
394.0,0.1196
394.5,0.1515
395.0,0.1842
395.5,0.1865
396.0,0.1611
396.5,0.09383
397.0,0.07017
397.5,0.1422
398.0,0.1984
398.5,0.2043
399.0,0.2205
399.5,0.219
400.0,0.2266
401.0,0.2226
402.0,0.2332
403.0,0.2199
404.0,0.2149
405.0,0.2134
406.0,0.2084
407.0,0.2035
408.0,0.2099
409.0,0.223
410.0,0.1935
411.0,0.2081
412.0,0.222
413.0,0.2149
414.0,0.216
415.0,0.215
416.0,0.2171
417.0,0.2102
418.0,0.2048
419.0,0.2059
420.0,0.2035
421.0,0.2113
422.0,0.1993
423.0,0.1932
424.0,0.2027
425.0,0.2008
426.0,0.1942
427.0,0.1892
428.0,0.183
429.0,0.1722
430.0,0.1496
431.0,0.1471
432.0,0.1885
433.0,0.1881
434.0,0.1733
435.0,0.1797
436.0,0.2011
437.0,0.197
438.0,0.1781
439.0,0.1828
440.0,0.1872
441.0,0.1924
442.0,0.2047
443.0,0.1979
444.0,0.2008
445.0,0.1951
446.0,0.1849
447.0,0.1985
448.0,0.2
449.0,0.1992
450.0,0.2032
451.0,0.2091
452.0,0.2
453.0,0.1868
454.0,0.1937
455.0,0.1933
456.0,0.1963
457.0,0.198
458.0,0.1896
459.0,0.1871
460.0,0.186
461.0,0.1888
462.0,0.189
463.0,0.1865
464.0,0.1823
465.0,0.1789
466.0,0.1794
467.0,0.1747
468.0,0.1753
469.0,0.1747
470.0,0.1679
471.0,0.1665
472.0,0.1743
473.0,0.1707
474.0,0.1697
475.0,0.1698
476.0,0.1633
477.0,0.1623
478.0,0.1653
479.0,0.1628
480.0,0.1617
481.0,0.1632
482.0,0.1628
483.0,0.1597
484.0,0.1554
485.0,0.1471
486.0,0.1278
487.0,0.133
488.0,0.1448
489.0,0.1441
490.0,0.1505
491.0,0.1467
492.0,0.1375
493.0,0.141
494.0,0.1413
495.0,0.1415
496.0,0.1413
497.0,0.1423
498.0,0.1345
499.0,0.1349
500.0,0.1298
501.0,0.1262
502.0,0.1232
503.0,0.127
504.0,0.1226
505.0,0.1261
506.0,0.1293
507.0,0.1222
508.0,0.1176
509.0,0.1202
510.0,0.1188
511.0,0.1212
512.0,0.1216
513.0,0.1142
514.0,0.1126
515.0,0.1106
516.0,0.1095
517.0,0.09662
518.0,0.1008
519.0,0.105
520.0,0.1079
521.0,0.1081
522.0,0.1073
523.0,0.1046
524.0,0.1074
525.0,0.1078
526.0,0.1021
527.0,0.09535
528.0,0.09994
529.0,0.1045
530.0,0.1022
531.0,0.1029
532.0,0.09862
533.0,0.09506
534.0,0.09721
535.0,0.0987
536.0,0.09897
537.0,0.09443
538.0,0.09543
539.0,0.09401
540.0,0.08951
541.0,0.08941
542.0,0.09147
543.0,0.08983
544.0,0.09077
545.0,0.08991
546.0,0.08965
547.0,0.08897
548.0,0.08729
549.0,0.08697
550.0,0.0874
551.0,0.08573
552.0,0.08571
553.0,0.08358
554.0,0.08498
555.0,0.08453
556.0,0.0828
557.0,0.0796
558.0,0.07835
559.0,0.07624
560.0,0.07656
561.0,0.07692
562.0,0.07572
563.0,0.07717
564.0,0.0745
565.0,0.07332
566.0,0.0717
567.0,0.07249
568.0,0.07128
569.0,0.06901
570.0,0.06852
571.0,0.06764
572.0,0.06871
573.0,0.06899
574.0,0.06835
575.0,0.06666
576.0,0.06566
577.0,0.066
578.0,0.06468
579.0,0.06463
580.0,0.06557
581.0,0.06558
582.0,0.06649
583.0,0.06634
584.0,0.0666
585.0,0.06462
586.0,0.06289
587.0,0.06382
588.0,0.06179
589.0,0.0542
590.0,0.05637
591.0,0.0594
592.0,0.05817
593.0,0.0587
594.0,0.05781
595.0,0.05591
596.0,0.05788
597.0,0.05682
598.0,0.05629
599.0,0.05595
600.0,0.0557
601.0,0.05493
602.0,0.05424
603.0,0.05482
604.0,0.05542
605.0,0.05486
606.0,0.05439
607.0,0.05469
608.0,0.05384
609.0,0.05369
610.0,0.05309
611.0,0.05315
612.0,0.05277
613.0,0.05187
614.0,0.05094
615.0,0.05182
616.0,0.0499
617.0,0.04958
618.0,0.05126
619.0,0.05051
620.0,0.05058
621.0,0.05038
622.0,0.04952
623.0,0.0485
624.0,0.04743
625.0,0.04711
626.0,0.04759
627.0,0.04786
628.0,0.04404
629.0,0.0461
630.0,0.0448
631.0,0.04573
632.0,0.045
633.0,0.04623
634.0,0.04563
635.0,0.04614
636.0,0.04534
637.0,0.04589
638.0,0.04616
639.0,0.04545
640.0,0.04482
641.0,0.04459
642.0,0.04422
643.0,0.04464
644.0,0.04431
645.0,0.04416
646.0,0.04286
647.0,0.04204
648.0,0.04185
649.0,0.04085
650.0,0.04099
651.0,0.04259
652.0,0.04044
653.0,0.04163
654.0,0.04099
655.0,0.03918
656.0,0.03462
657.0,0.0354
658.0,0.03955
659.0,0.03968
660.0,0.03966
661.0,0.03974
662.0,0.03962
663.0,0.03869
664.0,0.03901
665.0,0.03888
666.0,0.03874
667.0,0.03856
668.0,0.03842
669.0,0.03884
670.0,0.03849
671.0,0.03832
672.0,0.03785
673.0,0.03829
674.0,0.03797
675.0,0.03745
676.0,0.03754
677.0,0.03702
678.0,0.03697
679.0,0.03622
680.0,0.03634
681.0,0.03594
682.0,0.03572
683.0,0.03548
684.0,0.03513
685.0,0.03525
686.0,0.03488
687.0,0.02165
688.0,0.02585
689.0,0.02584
690.0,0.02719
691.0,0.02876
692.0,0.0299
693.0,0.02949
694.0,0.02907
695.0,0.03033
696.0,0.03022
697.0,0.03225
698.0,0.0316
699.0,0.03051
700.0,0.02999
701.0,0.02952
702.0,0.02966
703.0,0.02957
704.0,0.03047
705.0,0.03037
706.0,0.03024
707.0,0.03014
708.0,0.03006
709.0,0.03001
710.0,0.02983
711.0,0.02971
712.0,0.02954
713.0,0.02907
714.0,0.02903
715.0,0.0279
716.0,0.02778
717.0,0.02339
718.0,0.0212
719.0,0.01917
720.0,0.02005
721.0,0.02239
722.0,0.02602
723.0,0.02382
724.0,0.02106
725.0,0.02058
726.0,0.02156
727.0,0.02181
728.0,0.02025
729.0,0.02109
730.0,0.0223
731.0,0.02113
732.0,0.02273
733.0,0.02418
734.0,0.02468
735.0,0.02403
736.0,0.0239
737.0,0.02387
738.0,0.02425
739.0,0.02365
740.0,0.02419
741.0,0.02386
742.0,0.02379
743.0,0.02427
744.0,0.02409
745.0,0.02398
746.0,0.02398
747.0,0.02392
748.0,0.02375
749.0,0.02336
750.0,0.02324
751.0,0.02291
752.0,0.02291
753.0,0.02292
754.0,0.02286
755.0,0.02263
756.0,0.02253
757.0,0.02246
758.0,0.02207
759.0,0.02145
760.0,0.002947
761.0,0.001518
762.0,0.009733
763.0,0.004529
764.0,0.007001
765.0,0.009584
766.0,0.01212
767.0,0.01573
768.0,0.01855
769.0,0.01897
770.0,0.01966
771.0,0.01978
772.0,0.01975
773.0,0.01978
774.0,0.01958
775.0,0.01935
776.0,0.01949
777.0,0.01914
778.0,0.01892
779.0,0.01884
780.0,0.01865
781.0,0.01858
782.0,0.01862
783.0,0.01822
784.0,0.01823
785.0,0.01801
786.0,0.01813
787.0,0.01768
788.0,0.01736
789.0,0.01726
790.0,0.01664
791.0,0.01679
792.0,0.01659
793.0,0.01624
794.0,0.01653
795.0,0.01671
796.0,0.01601
797.0,0.01597
798.0,0.01646
799.0,0.01626
800.0,0.01587
801.0,0.01573
802.0,0.01561
803.0,0.01541
804.0,0.01537
805.0,0.01528
806.0,0.01568
807.0,0.01541
808.0,0.01535
809.0,0.01496
810.0,0.01473
811.0,0.01465
812.0,0.01408
813.0,0.01367
814.0,0.01172
815.0,0.0116
816.0,0.01064
817.0,0.01081
818.0,0.01033
819.0,0.01172
820.0,0.0109
821.0,0.01303
822.0,0.01254
823.0,0.007983
824.0,0.01199
825.0,0.01255
826.0,0.01192
827.0,0.01265
828.0,0.01039
829.0,0.01172
830.0,0.01149
831.0,0.01149
832.0,0.01103
833.0,0.01188
834.0,0.01132
835.0,0.01257
836.0,0.01186
837.0,0.0125
838.0,0.01201
839.0,0.01221
840.0,0.01244
841.0,0.01218
842.0,0.01219
843.0,0.01216
844.0,0.01192
845.0,0.01229
846.0,0.01218
847.0,0.01191
848.0,0.01177
849.0,0.01138
850.0,0.01086
851.0,0.01142
852.0,0.01129
853.0,0.01083
854.0,0.009299
855.0,0.01019
856.0,0.01108
857.0,0.0113
858.0,0.01117
859.0,0.01114
860.0,0.01111
861.0,0.011
862.0,0.01114
863.0,0.01136
864.0,0.01075
865.0,0.01061
866.0,0.009504
867.0,0.009878
868.0,0.01071
869.0,0.01044
870.0,0.01069
871.0,0.0105
872.0,0.01043
873.0,0.01036
874.0,0.01019
875.0,0.00994
876.0,0.009998
877.0,0.01006
878.0,0.01012
879.0,0.009924
880.0,0.009671
881.0,0.00948
882.0,0.009644
883.0,0.009642
884.0,0.009552
885.0,0.00958
886.0,0.009068
887.0,0.009147
888.0,0.00923
889.0,0.009317
890.0,0.009171
891.0,0.009133
892.0,0.008804
893.0,0.008447
894.0,0.008038
895.0,0.007466
896.0,0.006918
897.0,0.005769
898.0,0.00636
899.0,0.004611
900.0,0.006529
901.0,0.004858
902.0,0.00585
903.0,0.005844
904.0,0.007651
905.0,0.007309
906.0,0.00676
907.0,0.005252
908.0,0.005372
909.0,0.005901
910.0,0.005051
911.0,0.005444
912.0,0.00571
913.0,0.005062
914.0,0.005009
915.0,0.00547
916.0,0.004501
917.0,0.005935
918.0,0.004596
919.0,0.006016
920.0,0.006102
921.0,0.006385
922.0,0.005562
923.0,0.006121
924.0,0.005664
925.0,0.005501
926.0,0.005555
927.0,0.006306
928.0,0.004318
929.0,0.003864
930.0,0.002905
931.0,0.002728
932.0,0.001865
933.0,0.001471
934.0,0.0007503
935.0,0.001507
936.0,0.000891
937.0,0.0008984
938.0,0.001121
939.0,0.002553
940.0,0.003151
941.0,0.002273
942.0,0.002674
943.0,0.001655
944.0,0.001767
945.0,0.002311
946.0,0.001077
947.0,0.002294
948.0,0.001626
949.0,0.003181
950.0,0.0007514
951.0,0.003112
952.0,0.001524
953.0,0.002034
954.0,0.002579
955.0,0.002057
956.0,0.001996
957.0,0.001496
958.0,0.002958
959.0,0.002241
960.0,0.002538
961.0,0.002904
962.0,0.002718
963.0,0.003206
964.0,0.002885
965.0,0.003171
966.0,0.003156
967.0,0.003122
968.0,0.004456
969.0,0.004654
970.0,0.004192
971.0,0.004932
972.0,0.004654
973.0,0.003909
974.0,0.003668
975.0,0.003824
976.0,0.003567
977.0,0.004177
978.0,0.003899
979.0,0.004116
980.0,0.003807
981.0,0.00472
982.0,0.004446
983.0,0.00422
984.0,0.004862
985.0,0.004381
986.0,0.004942
987.0,0.004794
988.0,0.004765
989.0,0.004888
990.0,0.004703
991.0,0.004855
992.0,0.004869
993.0,0.004712
994.0,0.004836
995.0,0.004818
996.0,0.004773
997.0,0.004764
998.0,0.004723
999.0,0.00469
1000.0,0.004632
1001.0,0.004681
1002.0,0.004503
1003.0,0.004561
1004.0,0.004424
1005.0,0.004257
1006.0,0.004399
1007.0,0.004478
1008.0,0.004432
1009.0,0.004385
1010.0,0.004347
1011.0,0.00439
1012.0,0.004328
1013.0,0.004348
1014.0,0.004302
1015.0,0.004257
1016.0,0.00422
1017.0,0.004213
1018.0,0.004185
1019.0,0.004068
1020.0,0.004128
1021.0,0.004109
1022.0,0.004057
1023.0,0.004084
1024.0,0.004004
1025.0,0.004056
1026.0,0.00402
1027.0,0.003995
1028.0,0.003972
1029.0,0.00391
1030.0,0.003926
1031.0,0.003893
1032.0,0.003868
1033.0,0.003795
1034.0,0.003781
1035.0,0.003778
1036.0,0.003782
1037.0,0.003707
1038.0,0.003709
1039.0,0.003693
1040.0,0.003665
1041.0,0.003664
1042.0,0.003625
1043.0,0.0036
1044.0,0.003599
1045.0,0.003536
1046.0,0.003483
1047.0,0.0035
1048.0,0.003506
1049.0,0.003481
1050.0,0.003451
1051.0,0.003432
1052.0,0.003405
1053.0,0.003365
1054.0,0.003359
1055.0,0.003347
1056.0,0.003321
1057.0,0.003297
1058.0,0.003203
1059.0,0.003194
1060.0,0.003176
1061.0,0.00316
1062.0,0.003163
1063.0,0.00312
1064.0,0.003146
1065.0,0.003108
1066.0,0.003039
1067.0,0.003065
1068.0,0.002985
1069.0,0.002883
1070.0,0.002967
1071.0,0.003011
1072.0,0.002959
1073.0,0.002908
1074.0,0.002983
1075.0,0.002797
1076.0,0.002957
1077.0,0.002878
1078.0,0.002808
1079.0,0.002882
1080.0,0.002799
1081.0,0.002692
1082.0,0.002747
1083.0,0.00275
1084.0,0.002646
1085.0,0.002761
1086.0,0.002462
1087.0,0.00257
1088.0,0.002692
1089.0,0.002576
1090.0,0.00249
1091.0,0.002647
1092.0,0.002636
1093.0,0.002151
1094.0,0.002387
1095.0,0.002241
1096.0,0.002116
1097.0,0.002532
1098.0,0.002063
1099.0,0.002155
1100.0,0.00196
1101.0,0.001989
1102.0,0.001877
1103.0,0.001839
1104.0,0.001837
1105.0,0.002053
1106.0,0.001465
1107.0,0.001914
1108.0,0.001554
1109.0,0.001556
1110.0,0.00187
1111.0,0.001169
1112.0,0.001531
1113.0,0.00089
1114.0,0.001005
1115.0,0.000812
1116.0,0.0006183
1117.0,0.0002009
1118.0,0.0006776
1119.0,0.0003073
1120.0,0.0003907
1121.0,0.0005336
1122.0,0.0002042
1123.0,0.000347
1124.0,0.0002886
1125.0,0.000385
1126.0,0.0001201
1127.0,0.0004354
1128.0,0.0002432
1129.0,0.0002591
1130.0,0.0001641
1131.0,0.0008908
1132.0,0.0006737
1133.0,0.0003972
1134.0,8.988e-05
1135.0,3.292e-05
1136.0,0.0003197
1137.0,0.000851
1138.0,0.0005747
1139.0,0.0009206
1140.0,0.0007402
1141.0,0.0005383
1142.0,0.0006304
1143.0,0.0009393
1144.0,0.0002857
1145.0,0.0003667
1146.0,0.000396
1147.0,0.000125
1148.0,0.0007848
1149.0,0.000602
1150.0,0.0003038
1151.0,0.0005447
1152.0,0.000692
1153.0,0.0006771
1154.0,0.0003434
1155.0,0.000914
1156.0,0.0008046
1157.0,0.0009227
1158.0,0.0009083
1159.0,0.0009959
1160.0,0.0008246
1161.0,0.001059
1162.0,0.001056
1163.0,0.001515
1164.0,0.001257
1165.0,0.00116
1166.0,0.001156
1167.0,0.001275
1168.0,0.001284
1169.0,0.001322
1170.0,0.001454
1171.0,0.001406
1172.0,0.001436
1173.0,0.001436
1174.0,0.0009561
1175.0,0.001399
1176.0,0.001563
1177.0,0.001478
1178.0,0.001048
1179.0,0.001561
1180.0,0.001351
1181.0,0.001398
1182.0,0.0008988
1183.0,0.001375
1184.0,0.001261
1185.0,0.0012
1186.0,0.001472
1187.0,0.001382
1188.0,0.0008995
1189.0,0.001271
1190.0,0.001417
1191.0,0.00132
1192.0,0.001431
1193.0,0.001355
1194.0,0.001402
1195.0,0.001307
1196.0,0.001244
1197.0,0.001401
1198.0,0.001259
1199.0,0.001032
1200.0,0.001312
1201.0,0.001249
1202.0,0.001242
1203.0,0.001233
1204.0,0.001044
1205.0,0.001269
1206.0,0.001428
1207.0,0.001221
1208.0,0.001208
1209.0,0.00123
1210.0,0.001288
1211.0,0.001208
1212.0,0.00118
1213.0,0.001345
1214.0,0.001208
1215.0,0.001177
1216.0,0.001328
1217.0,0.001281
1218.0,0.001308
1219.0,0.001284
1220.0,0.001301
1221.0,0.001314
1222.0,0.00127
1223.0,0.001252
1224.0,0.001236
1225.0,0.001289
1226.0,0.001297
1227.0,0.001175
1228.0,0.001298
1229.0,0.001285
1230.0,0.001256
1231.0,0.001298
1232.0,0.001285
1233.0,0.001225
1234.0,0.001287
1235.0,0.001272
1236.0,0.001279
1237.0,0.001252
1238.0,0.001267
1239.0,0.001246
1240.0,0.001247
1241.0,0.001234
1242.0,0.00123
1243.0,0.001216
1244.0,0.00122
1245.0,0.001222
1246.0,0.001211
1247.0,0.001201
1248.0,0.001195
1249.0,0.001196
1250.0,0.001184
1251.0,0.001164
1252.0,0.001163
1253.0,0.001145
1254.0,0.001127
1255.0,0.001149
1256.0,0.001106
1257.0,0.001095
1258.0,0.001118
1259.0,0.001062
1260.0,0.001066
1261.0,0.0009893
1262.0,0.0009498
1263.0,0.0009485
1264.0,0.0008574
1265.0,0.0009373
1266.0,0.0008899
1267.0,0.0009092
1268.0,0.0008494
1269.0,0.0004726
1270.0,0.000896
1271.0,0.0009605
1272.0,0.0009622
1273.0,0.0009474
1274.0,0.0009494
1275.0,0.0009628
1276.0,0.0009717
1277.0,0.0009777
1278.0,0.0009991
1279.0,0.0009865
1280.0,0.0009712
1281.0,0.0009264
1282.0,0.000894
1283.0,0.000959
1284.0,0.0009779
1285.0,0.000982
1286.0,0.0009946
1287.0,0.0009716
1288.0,0.0009695
1289.0,0.0009276
1290.0,0.0009554
1291.0,0.000967
1292.0,0.0008898
1293.0,0.000938
1294.0,0.0009275
1295.0,0.0009169
1296.0,0.0008626
1297.0,0.0008047
1298.0,0.0008796
1299.0,0.0009231
1300.0,0.0007497
1301.0,0.0007764
1302.0,0.0008671
1303.0,0.0007346
1304.0,0.0006021
1305.0,0.0008379
1306.0,0.0008348
1307.0,0.0006139
1308.0,0.0007255
1309.0,0.000819
1310.0,0.0005949
1311.0,0.0006837
1312.0,0.0006618
1313.0,0.0006424
1314.0,0.0005605
1315.0,0.0005513
1316.0,0.0006608
1317.0,0.0006175
1318.0,0.0006814
1319.0,0.0005029
1320.0,0.0004856
1321.0,0.0005796
1322.0,0.0005825
1323.0,0.0004138
1324.0,0.000485
1325.0,0.0006314
1326.0,0.0005242
1327.0,0.0004939
1328.0,0.0004144
1329.0,0.000295
1330.0,0.000397
1331.0,0.0002207
1332.0,0.0002297
1333.0,0.0003308
1334.0,0.0002773
1335.0,0.0003975
1336.0,0.0003013
1337.0,0.000261
1338.0,0.0002839
1339.0,0.0002828
1340.0,0.0002746
1341.0,0.000263
1342.0,0.0002773
1343.0,0.0001747
1344.0,0.0001008
1345.0,0.0001488
1346.0,6.833e-05
1347.0,6.896e-05
1348.0,4.109e-06
1349.0,1.499e-05
1350.0,1.56e-05
1351.0,3.679e-06
1352.0,9.82e-07
1353.0,4.984e-08
1354.0,1.714e-07
1355.0,1.379e-09
1356.0,2.414e-08
1357.0,3.667e-08
1358.0,1.619e-09
1359.0,2.039e-10
1360.0,7.37e-10
1361.0,8.243e-13
1362.0,2.255e-15
1363.0,9.909e-10
1364.0,4.091e-10
1365.0,7.872e-16
1366.0,4.294e-09
1367.0,1.753e-09
1368.0,6.079e-18
1369.0,1.507e-10
1370.0,7.423e-11
1371.0,4.208e-12
1372.0,9.506e-10
1373.0,1.915e-08
1374.0,8.887e-08
1375.0,1.612e-07
1376.0,1.446e-07
1377.0,6.603e-08
1378.0,6.467e-07
1379.0,2.758e-08
1380.0,3.964e-08
1381.0,1.032e-09
1382.0,8.33e-10
1383.0,1.245e-11
1384.0,1.633e-10
1385.0,7.808e-10
1386.0,7.344e-10
1387.0,8.886e-08
1388.0,1.747e-09
1389.0,3.003e-07
1390.0,2.577e-07
1391.0,1.713e-07
1392.0,1.11e-08
1393.0,5.881e-08
1394.0,3.03e-08
1395.0,2.22e-10
1396.0,1.073e-12
1397.0,2.315e-08
1398.0,6.858e-07
1399.0,4.336e-07
1400.0,4.587e-13
1401.0,1.903e-12
1402.0,1.206e-06
1403.0,1.511e-06
1404.0,4.576e-07
1405.0,1.051e-10
1406.0,1.184e-06
1407.0,1.041e-07
1408.0,9.628e-07
1409.0,3.203e-07
1410.0,2.565e-07
1411.0,1.298e-06
1412.0,1.755e-06
1413.0,1.883e-05
1414.0,2.002e-07
1415.0,9.554e-08
1416.0,3.197e-05
1417.0,9.093e-06
1418.0,1.029e-05
1419.0,1.557e-06
1420.0,6.213e-06
1421.0,6.718e-06
1422.0,4.147e-05
1423.0,7.62e-06
1424.0,1.45e-05
1425.0,2.129e-05
1426.0,2.464e-05
1427.0,4.733e-05
1428.0,3.054e-06
1429.0,3.418e-05
1430.0,6.113e-05
1431.0,6.777e-05
1432.0,2.369e-06
1433.0,4.129e-05
1434.0,2.018e-05
1435.0,1.929e-05
1436.0,3.922e-05
1437.0,2.972e-05
1438.0,1.19e-05
1439.0,5.424e-05
1440.0,4.009e-05
1441.0,2.936e-05
1442.0,3.263e-05
1443.0,4.244e-05
1444.0,6.041e-05
1445.0,4.53e-05
1446.0,1.945e-05
1447.0,3.117e-05
1448.0,0.0001221
1449.0,0.0001031
1450.0,2.279e-05
1451.0,8.74e-06
1452.0,5.813e-05
1453.0,7.812e-05
1454.0,0.0001468
1455.0,6.282e-05
1456.0,8.491e-05
1457.0,0.0001199
1458.0,0.0001475
1459.0,0.0001762
1460.0,8.447e-05
1461.0,8.63e-05
1462.0,0.000134
1463.0,3.826e-05
1464.0,0.0001644
1465.0,9.38e-05
1466.0,5.885e-05
1467.0,2.891e-05
1468.0,7.076e-05
1469.0,8.97e-05
1470.0,4.039e-05
1471.0,1.382e-05
1472.0,3.831e-05
1473.0,6.182e-05
1474.0,9.595e-05
1475.0,0.0001994
1476.0,6.187e-05
1477.0,6.154e-05
1478.0,5.79e-05
1479.0,0.0001196
1480.0,5.225e-05
1481.0,0.0001124
1482.0,5.147e-05
1483.0,0.0001513
1484.0,0.0001415
1485.0,0.0001227
1486.0,0.0001192
1487.0,4.931e-05
1488.0,9.395e-05
1489.0,0.0002034
1490.0,0.0001864
1491.0,0.0002166
1492.0,0.0001692
1493.0,0.0001901
1494.0,0.0002203
1495.0,0.0001918
1496.0,0.0001772
1497.0,0.0002597
1498.0,0.0002024
1499.0,0.0002424
1500.0,0.0002872
1501.0,0.0003033
1502.0,0.0002503
1503.0,0.0002052
1504.0,0.0001581
1505.0,0.0001963
1506.0,0.0003016
1507.0,0.0002868
1508.0,0.0002714
1509.0,0.0001958
1510.0,0.0003114
1511.0,0.0002981
1512.0,0.0002959
1513.0,0.0002653
1514.0,0.0002441
1515.0,0.000303
1516.0,0.0002872
1517.0,0.0002781
1518.0,0.0002768
1519.0,0.0002685
1520.0,0.0002926
1521.0,0.0003166
1522.0,0.000297
1523.0,0.00032
1524.0,0.0003079
1525.0,0.0002908
1526.0,0.0002952
1527.0,0.0002919
1528.0,0.0003142
1529.0,0.0002961
1530.0,0.0002895
1531.0,0.0002973
1532.0,0.000311
1533.0,0.0003107
1534.0,0.0003041
1535.0,0.000301
1536.0,0.0003068
1537.0,0.0002987
1538.0,0.0003021
1539.0,0.0002958
1540.0,0.0002966
1541.0,0.0002978
1542.0,0.0002933
1543.0,0.0002984
1544.0,0.0002936
1545.0,0.0002993
1546.0,0.0002936
1547.0,0.0002891
1548.0,0.0002884
1549.0,0.0002905
1550.0,0.0002877
1551.0,0.000289
1552.0,0.0002857
1553.0,0.0002837
1554.0,0.0002804
1555.0,0.0002806
1556.0,0.0002797
1557.0,0.0002824
1558.0,0.0002801
1559.0,0.0002777
1560.0,0.000279
1561.0,0.0002803
1562.0,0.0002759
1563.0,0.0002732
1564.0,0.0002737
1565.0,0.0002738
1566.0,0.0002694
1567.0,0.0002694
1568.0,0.000266
1569.0,0.0002672
1570.0,0.000269
1571.0,0.0002705
1572.0,0.0002682
1573.0,0.0002658
1574.0,0.0002557
1575.0,0.000252
1576.0,0.0002473
1577.0,0.0002403
1578.0,0.0002516
1579.0,0.0002531
1580.0,0.0002548
1581.0,0.0002505
1582.0,0.000245
1583.0,0.0002455
1584.0,0.0002498
1585.0,0.000252
1586.0,0.0002484
1587.0,0.0002438
1588.0,0.0002367
1589.0,0.0002288
1590.0,0.0002334
1591.0,0.0002386
1592.0,0.0002449
1593.0,0.0002484
1594.0,0.0002472
1595.0,0.0002435
1596.0,0.0002357
1597.0,0.000241
1598.0,0.000244
1599.0,0.0002408
1600.0,0.0002387
1601.0,0.0002347
1602.0,0.0002347
1603.0,0.0002367
1604.0,0.0002342
1605.0,0.0002336
1606.0,0.0002303
1607.0,0.0002318
1608.0,0.0002309
1609.0,0.0002243
1610.0,0.0002192
1611.0,0.0002225
1612.0,0.0002247
1613.0,0.0002243
1614.0,0.0002239
1615.0,0.0002184
1616.0,0.0002145
1617.0,0.0002181
1618.0,0.0002215
1619.0,0.0002166
1620.0,0.0002117
1621.0,0.0002136
1622.0,0.0002164
1623.0,0.000219
1624.0,0.0002158
1625.0,0.0002145
1626.0,0.0002144
1627.0,0.0002156
1628.0,0.0002144
1629.0,0.0002121
1630.0,0.0002102
1631.0,0.0002083
1632.0,0.0002074
1633.0,0.0002002
1634.0,0.0002048
1635.0,0.0002008
1636.0,0.0001991
1637.0,0.0001967
1638.0,0.0001835
1639.0,0.0001914
1640.0,0.0001813
1641.0,0.000189
1642.0,0.0001925
1643.0,0.0001794
1644.0,0.0001916
1645.0,0.0001846
1646.0,0.0001788
1647.0,0.0001932
1648.0,0.0001774
1649.0,0.0001872
1650.0,0.0001883
1651.0,0.000172
1652.0,0.0001852
1653.0,0.0001867
1654.0,0.0001747
1655.0,0.0001858
1656.0,0.0001817
1657.0,0.0001829
1658.0,0.0001853
1659.0,0.0001833
1660.0,0.0001844
1661.0,0.0001828
1662.0,0.0001768
1663.0,0.0001813
1664.0,0.000179
1665.0,0.0001671
1666.0,0.0001316
1667.0,0.0001647
1668.0,0.0001718
1669.0,0.0001723
1670.0,0.0001753
1671.0,0.0001695
1672.0,0.0001673
1673.0,0.000171
1674.0,0.0001662
1675.0,0.0001634
1676.0,0.0001643
1677.0,0.0001634
1678.0,0.0001577
1679.0,0.0001617
1680.0,0.0001546
1681.0,0.000149
1682.0,0.0001577
1683.0,0.0001607
1684.0,0.000146
1685.0,0.0001617
1686.0,0.0001608
1687.0,0.0001533
1688.0,0.000159
1689.0,0.0001568
1690.0,0.0001556
1691.0,0.0001391
1692.0,0.000154
1693.0,0.0001587
1694.0,0.0001514
1695.0,0.0001561
1696.0,0.0001558
1697.0,0.0001267
1698.0,0.0001534
1699.0,0.0001509
1700.0,0.0001459
1702.0,0.0001485
1705.0,0.0001422
1710.0,0.0001325
1715.0,0.0001312
1720.0,0.0001285
1725.0,0.0001174
1730.0,0.0001149
1735.0,0.0001059
1740.0,0.0001061
1745.0,9.761e-05
1750.0,0.0001043
1755.0,9.37e-05
1760.0,9.76e-05
1765.0,7.656e-05
1770.0,8.169e-05
1775.0,6.257e-05
1780.0,5.181e-05
1785.0,3.691e-05
1790.0,4.316e-05
1795.0,1.902e-05
1800.0,1.291e-05
1805.0,4.769e-06
1810.0,3.075e-06
1815.0,8.599e-07
1820.0,2.13e-07
1825.0,2.782e-07
1830.0,6.738e-10
1835.0,1.02e-09
1840.0,5.953e-12
1845.0,6.365e-10
1850.0,2.873e-10
1855.0,2.746e-11
1860.0,1.574e-09
1865.0,2.193e-09
1870.0,1.2e-14
1875.0,2.168e-14
1880.0,1.155e-08
1885.0,6.155e-09
1890.0,3.378e-08
1895.0,1.96e-08
1900.0,8.369e-11
1905.0,5.7e-11
1910.0,2.761e-09
1915.0,2.69e-09
1920.0,7.066e-08
1925.0,1.664e-07
1930.0,9.604e-08
1935.0,7.415e-07
1940.0,7.401e-07
1945.0,3.155e-06
1950.0,6.36e-06
1955.0,5.595e-06
1960.0,1.036e-05
1965.0,1.57e-05
1970.0,2.294e-05
1975.0,2.629e-05
1980.0,2.64e-05
1985.0,2.857e-05
1990.0,2.942e-05
1995.0,3.117e-05
2000.0,3.282e-05
2005.0,2.676e-05
2010.0,4.006e-05
2015.0,3.009e-05
2020.0,3.231e-05
2025.0,3.536e-05
2030.0,3.176e-05
2035.0,3.484e-05
2040.0,3.259e-05
2045.0,3.346e-05
2050.0,3.38e-05
2055.0,3.191e-05
2060.0,3.048e-05
2065.0,3.084e-05
2070.0,3.013e-05
2075.0,3.068e-05
2080.0,2.957e-05
2085.0,2.914e-05
2090.0,2.925e-05
2095.0,2.805e-05
2100.0,2.568e-05
2105.0,2.782e-05
2110.0,2.631e-05
2115.0,2.685e-05
2120.0,2.482e-05
2125.0,2.505e-05
2130.0,2.522e-05
2135.0,2.523e-05
2140.0,2.523e-05
2145.0,2.474e-05
2150.0,2.277e-05
2155.0,2.259e-05
2160.0,2.218e-05
2165.0,1.996e-05
2170.0,2.119e-05
2175.0,2.038e-05
2180.0,2.085e-05
2185.0,1.825e-05
2190.0,1.972e-05
2195.0,1.935e-05
2200.0,1.657e-05
2205.0,1.75e-05
2210.0,1.907e-05
2215.0,1.794e-05
2220.0,1.823e-05
2225.0,1.746e-05
2230.0,1.74e-05
2235.0,1.676e-05
2240.0,1.64e-05
2245.0,1.55e-05
2250.0,1.574e-05
2255.0,1.437e-05
2260.0,1.396e-05
2265.0,1.426e-05
2270.0,1.315e-05
2275.0,1.281e-05
2280.0,1.344e-05
2285.0,1.234e-05
2290.0,1.225e-05
2295.0,1.18e-05
2300.0,1.098e-05
2305.0,1.1e-05
2310.0,1.22e-05
2315.0,1.062e-05
2320.0,9.053e-06
2325.0,1.026e-05
2330.0,1.015e-05
2335.0,1.037e-05
2340.0,7.624e-06
2345.0,8.705e-06
2350.0,6.628e-06
2355.0,7.823e-06
2360.0,8.326e-06
2365.0,8.169e-06
2370.0,4.365e-06
2375.0,6.944e-06
2380.0,6.569e-06
2385.0,4.451e-06
2390.0,5.386e-06
2395.0,5.969e-06
2400.0,6.574e-06
2405.0,4.764e-06
2410.0,4.73e-06
2415.0,3.652e-06
2420.0,3.509e-06
2425.0,4.483e-06
2430.0,6.326e-06
2435.0,1.752e-06
2440.0,6.043e-06
2445.0,2.511e-06
2450.0,1.528e-06
2455.0,3.053e-06
2460.0,4.196e-06
2465.0,2.831e-06
2470.0,1.808e-06
2475.0,1.746e-06
2480.0,7.884e-07
2485.0,5.039e-07
2490.0,2.857e-07
2495.0,2.468e-07
2500.0,6.255e-07
2505.0,1.24e-07
2510.0,1.832e-07
2515.0,3.824e-08
2520.0,2.139e-08
2525.0,2.436e-09
2530.0,1.693e-11
2535.0,3.745e-12
2540.0,8.885e-12
2545.0,6.89e-16
2550.0,2.793e-18
2555.0,1.341e-14
2560.0,4.024e-16
2565.0,9.009000000000001e-20
2570.0,2.682e-24
2575.0,1.6970000000000002e-34
2580.0,1.7690000000000001e-28
2585.0,3.6980000000000004e-42
2590.0,2.307e-38
2595.0,4.489e-40
2600.0,3.696e-35
2605.0,4.085e-42
2610.0,1.4059999999999998e-41
2615.0,1.4009999999999999e-45
2620.0,1.239e-35
2625.0,2.269e-35
2630.0,0.0
2635.0,1.181e-21
2640.0,2.5569999999999996e-22
2645.0,1.115e-24
2650.0,1.11e-25
2655.0,1.3350000000000002e-34
2660.0,1.124e-31
2665.0,1.121e-44
2670.0,0.0
2675.0,5.464999999999999e-44
2680.0,2.279e-30
2685.0,2.178e-31
2690.0,8.148000000000001e-31
2695.0,3.196e-33
2700.0,9.31e-29
2705.0,2.64e-26
2710.0,2.1020000000000003e-31
2715.0,2.655e-29
2720.0,0.0
2725.0,5.944e-27
2730.0,1.733e-24
2735.0,1.976e-26
2740.0,3.57e-32
2745.0,4.602e-27
2750.0,2.5800000000000002e-26
2755.0,4.15e-28
2760.0,6.219e-23
2765.0,2.9179999999999996e-29
2770.0,1.434e-26
2775.0,1.77e-23
2780.0,8.243e-21
2785.0,3.0950000000000004e-20
2790.0,7.057e-18
2795.0,1.553e-18
2800.0,4.956e-15
2805.0,9.266e-17
2810.0,3.716e-13
2815.0,1.108e-13
2820.0,1.354e-15
2825.0,1.188e-11
2830.0,2.583e-10
2835.0,3.558e-15
2840.0,7.613e-12
2845.0,2.635e-09
2850.0,4.56e-11
2855.0,1.821e-11
2860.0,9.469e-10
2865.0,6.984e-09
2870.0,1.771e-10
2875.0,1.7e-08
2880.0,1.072e-08
2885.0,1.765e-08
2890.0,7.502e-09
2895.0,1.282e-07
2900.0,3.567e-08
2905.0,4.125e-09
2910.0,1.307e-07
2915.0,5.541e-08
2920.0,1.377e-07
2925.0,4.903e-08
2930.0,2.977e-07
2935.0,3.284e-07
2940.0,7.328e-08
2945.0,6.29e-08
2950.0,2.547e-07
2955.0,1.132e-07
2960.0,2.251e-07
2965.0,3.819e-07
2970.0,1.487e-08
2975.0,3.769e-08
2980.0,5.867e-08
2985.0,3.469e-07
2990.0,5.271e-07
2995.0,1.991e-07
3000.0,3.797e-07
3005.0,1.287e-07
3010.0,3.324e-07
3015.0,2.573e-07
3020.0,2.313e-08
3025.0,3.554e-07
3030.0,2.797e-07
3035.0,1.059e-07
3040.0,8.275e-08
3045.0,1.781e-07
3050.0,4.023e-08
3055.0,9.828e-09
3060.0,2.782e-07
3065.0,1.173e-07
3070.0,6.579e-08
3075.0,2.595e-07
3080.0,1.503e-07
3085.0,6.615e-08
3090.0,9.005e-08
3095.0,2.208e-08
3100.0,1.808e-07
3105.0,3.367e-08
3110.0,2.815e-08
3115.0,8.476e-08
3120.0,4.205e-07
3125.0,1.224e-07
3130.0,2.444e-07
3135.0,4.935e-07
3140.0,1.296e-07
3145.0,1.271e-07
3150.0,2.701e-07
3155.0,2.271e-07
3160.0,3.788e-07
3165.0,6.008e-07
3170.0,5.314e-07
3175.0,3.708e-07
3180.0,4.395e-07
3185.0,3.051e-07
3190.0,1.59e-07
3195.0,8.77e-08
3200.0,1.23e-08
3205.0,8.028e-09
3210.0,3.343e-09
3215.0,1.361e-08
3220.0,4.796e-08
3225.0,5.491e-09
3230.0,9.125e-09
3235.0,2.615e-07
3240.0,1.175e-07
3245.0,2.214e-08
3250.0,8.221e-08
3255.0,3.598e-07
3260.0,3.498e-08
3265.0,7.611e-08
3270.0,3.564e-08
3275.0,2.188e-07
3280.0,9.207e-08
3285.0,4.101e-07
3290.0,3.059e-07
3295.0,3.672e-08
3300.0,5.471e-08
3305.0,1.266e-07
3310.0,1.2e-07
3315.0,1.71e-10
3320.0,1.078e-09
3325.0,1.006e-07
3330.0,1.545e-07
3335.0,3.023e-07
3340.0,1.095e-07
3345.0,1.061e-07
3350.0,2.688e-07
3355.0,1.072e-07
3360.0,1.656e-07
3365.0,2.349e-07
3370.0,1.121e-07
3375.0,2.76e-07
3380.0,1.48e-07
3385.0,2.365e-07
3390.0,3.117e-07
3395.0,3.021e-07
3400.0,4.102e-07
3405.0,1.228e-07
3410.0,2.176e-07
3415.0,2.11e-07
3420.0,4.267e-07
3425.0,3.032e-07
3430.0,2.549e-07
3435.0,3.659e-07
3440.0,2.321e-07
3445.0,3.486e-07
3450.0,3.402e-07
3455.0,2.411e-07
3460.0,3.883e-07
3465.0,2.855e-07
3470.0,3.756e-07
3475.0,3.248e-07
3480.0,3.329e-07
3485.0,3.628e-07
3490.0,3.015e-07
3495.0,3.648e-07
3500.0,3.52e-07
3505.0,3.469e-07
3510.0,3.513e-07
3515.0,3.343e-07
3520.0,3.571e-07
3525.0,3.313e-07
3530.0,3.208e-07
3535.0,2.605e-07
3540.0,2.461e-07
3545.0,2.612e-07
3550.0,2.958e-07
3555.0,2.465e-07
3560.0,3.029e-07
3565.0,3.02e-07
3570.0,2.251e-07
3575.0,2.324e-07
3580.0,2.82e-07
3585.0,2.447e-07
3590.0,2.558e-07
3595.0,2.618e-07
3600.0,2.803e-07
3605.0,2.794e-07
3610.0,2.519e-07
3615.0,2.523e-07
3620.0,3.173e-07
3625.0,2.691e-07
3630.0,2.614e-07
3635.0,2.695e-07
3640.0,3.056e-07
3645.0,2.734e-07
3650.0,2.589e-07
3655.0,2.841e-07
3660.0,2.812e-07
3665.0,2.577e-07
3670.0,1.911e-07
3675.0,1.062e-07
3680.0,1.984e-07
3685.0,2.297e-07
3690.0,2.373e-07
3695.0,2.485e-07
3700.0,2.706e-07
3705.0,2.651e-07
3710.0,2.241e-07
3715.0,2.199e-07
3720.0,2.531e-07
3725.0,2.603e-07
3730.0,2.194e-07
3735.0,1.973e-07
3740.0,2.032e-07
3745.0,2.426e-07
3750.0,2.162e-07
3755.0,2.076e-07
3760.0,2.031e-07
3765.0,1.943e-07
3770.0,2.099e-07
3775.0,2.064e-07
3780.0,2.201e-07
3785.0,1.976e-07
3790.0,1.704e-07
3795.0,1.987e-07
3800.0,2.264e-07
3805.0,2.097e-07
3810.0,1.809e-07
3815.0,1.673e-07
3820.0,2.172e-07
3825.0,2.111e-07
3830.0,2.142e-07
3835.0,1.623e-07
3840.0,1.962e-07
3845.0,1.897e-07
3850.0,1.904e-07
3855.0,1.803e-07
3860.0,1.654e-07
3865.0,1.663e-07
3870.0,1.472e-07
3875.0,1.309e-07
3880.0,1.251e-07
3885.0,1.3e-07
3890.0,1.318e-07
3895.0,1.468e-07
3900.0,1.577e-07
3905.0,1.565e-07
3910.0,1.365e-07
3915.0,1.318e-07
3920.0,1.312e-07
3925.0,1.281e-07
3930.0,1.329e-07
3935.0,1.394e-07
3940.0,1.41e-07
3945.0,1.434e-07
3950.0,1.457e-07
3955.0,1.471e-07
3960.0,1.482e-07
3965.0,1.491e-07
3970.0,1.466e-07
3975.0,1.415e-07
3980.0,1.386e-07
3985.0,1.388e-07
3990.0,1.361e-07
3995.0,1.321e-07
4000.0,1.258e-07
