interpolation:linear
wavelength,value
280.0,7.607999999999999e-22
280.5,2.4630000000000002e-20
281.0,1.313e-19
281.5,5.199e-19
282.0,8.777e-19
282.5,2.172e-18
283.0,6.837e-18
283.5,1.11e-17
284.0,1.803e-16
284.5,5.226e-16
285.0,9.717e-16
285.5,4.733e-15
286.0,1.896e-14
286.5,8.432e-14
287.0,2.401e-13
287.5,9.171e-13
288.0,2.933e-12
288.5,9.053e-12
289.0,2.44e-11
289.5,7.424e-11
290.0,2.069e-10
290.5,4.228e-10
291.0,9.092e-10
291.5,2.612e-09
292.0,5.839e-09
292.5,8.226e-09
293.0,1.772e-08
293.5,4.335e-08
294.0,6.801e-08
294.5,8.996e-08
295.0,1.525e-07
295.5,3.129e-07
296.0,5.786e-07
296.5,8.273e-07
297.0,1.142e-06
297.5,3.179e-06
298.0,5.2e-06
298.5,5.404e-06
299.0,1.235e-05
299.5,2.213e-05
300.0,2.557e-05
300.5,3.924e-05
301.0,7.935e-05
301.5,0.0001431
302.0,0.0001318
302.5,0.0002611
303.0,0.0004782
303.5,0.0006124
304.0,0.0005878
304.5,0.0009321
305.0,0.001545
305.5,0.001873
306.0,0.001851
306.5,0.002391
307.0,0.003865
307.5,0.005592
308.0,0.005976
308.5,0.007356
309.0,0.007552
309.5,0.008983
310.0,0.00918
310.5,0.01498
311.0,0.01906
311.5,0.01848
312.0,0.01912
312.5,0.0238
313.0,0.02609
313.5,0.02495
314.0,0.03209
314.5,0.02961
315.0,0.0391
315.5,0.03193
316.0,0.02881
316.5,0.04258
317.0,0.05269
317.5,0.05417
318.0,0.04307
318.5,0.05568
319.0,0.06738
319.5,0.05283
320.0,0.0633
320.5,0.08265
321.0,0.07656
321.5,0.0735
322.0,0.07463
322.5,0.06488
323.0,0.06636
323.5,0.08351
324.0,0.09762
324.5,0.09778
325.0,0.08295
325.5,0.109
326.0,0.1335
326.5,0.1353
327.0,0.1337
327.5,0.1279
328.0,0.1115
328.5,0.1194
329.0,0.1455
329.5,0.1657
330.0,0.1658
330.5,0.1302
331.0,0.1316
331.5,0.1349
332.0,0.1479
332.5,0.1471
333.0,0.1455
333.5,0.1296
334.0,0.132
334.5,0.1542
335.0,0.1459
335.5,0.1716
336.0,0.1185
336.5,0.1362
337.0,0.1106
337.5,0.1368
338.0,0.135
338.5,0.1569
339.0,0.1545
339.5,0.1484
340.0,0.1724
340.5,0.1551
341.0,0.1518
341.5,0.1385
342.0,0.1649
342.5,0.1537
343.0,0.1688
343.5,0.1587
344.0,0.1165
344.5,0.1182
345.0,0.1552
345.5,0.1577
346.0,0.1335
346.5,0.1507
347.0,0.1615
347.5,0.1302
348.0,0.1478
348.5,0.1471
349.0,0.1361
349.5,0.1343
350.0,0.1656
350.5,0.1741
351.0,0.1552
351.5,0.1507
352.0,0.1611
352.5,0.1252
353.0,0.1571
353.5,0.1675
354.0,0.1733
354.5,0.1752
355.0,0.1741
355.5,0.1567
356.0,0.1635
356.5,0.1391
357.0,0.1146
357.5,0.1398
358.0,0.1105
358.5,0.0941
359.0,0.1312
359.5,0.1667
360.0,0.1761
360.5,0.1403
361.0,0.1275
361.5,0.1463
362.0,0.1262
362.5,0.174
363.0,0.1558
363.5,0.1431
364.0,0.1744
364.5,0.1486
365.0,0.1509
365.5,0.1887
366.0,0.1993
366.5,0.1867
367.0,0.1812
367.5,0.1875
368.0,0.1635
368.5,0.1645
369.0,0.177
369.5,0.1881
370.0,0.1999
370.5,0.1546
371.0,0.1647
371.5,0.2053
372.0,0.1358
372.5,0.1624
373.0,0.1646
373.5,0.1068
374.0,0.1546
374.5,0.1276
375.0,0.1237
375.5,0.184
376.0,0.152
376.5,0.157
377.0,0.1657
377.5,0.1933
378.0,0.2088
378.5,0.1967
379.0,0.1617
379.5,0.1472
380.0,0.1525
380.5,0.1841
381.0,0.1838
381.5,0.1452
382.0,0.1285
382.5,0.1092
383.0,0.1007
383.5,0.09669
384.0,0.1063
384.5,0.1558
385.0,0.154
385.5,0.143
386.0,0.122
386.5,0.1597
387.0,0.1323
387.5,0.148
388.0,0.1362
388.5,0.1342
389.0,0.1443
389.5,0.1742
390.0,0.1743
390.5,0.1598
391.0,0.1875
391.5,0.1905
392.0,0.1599
392.5,0.1427
393.0,0.07911
393.5,0.05731
394.0,0.1162
394.5,0.1473
395.0,0.1791
395.5,0.1813
396.0,0.1566
396.5,0.09126
397.0,0.06825
397.5,0.1383
398.0,0.193
398.5,0.1988
399.0,0.2146
399.5,0.2131
400.0,0.2205
401.0,0.2167
402.0,0.227
403.0,0.2141
404.0,0.2093
405.0,0.2079
406.0,0.203
407.0,0.1983
408.0,0.2045
409.0,0.2174
410.0,0.1887
411.0,0.203
412.0,0.2165
413.0,0.2097
414.0,0.2107
415.0,0.2098
416.0,0.2119
417.0,0.2052
418.0,0.1999
419.0,0.2011
420.0,0.1988
421.0,0.2064
422.0,0.1947
423.0,0.1887
424.0,0.1981
425.0,0.1962
426.0,0.1898
427.0,0.185
428.0,0.179
429.0,0.1684
430.0,0.1463
431.0,0.1439
432.0,0.1844
433.0,0.184
434.0,0.1696
435.0,0.1759
436.0,0.1969
437.0,0.1929
438.0,0.1744
439.0,0.179
440.0,0.1833
441.0,0.1884
442.0,0.2005
443.0,0.1939
444.0,0.1967
445.0,0.1912
446.0,0.1812
447.0,0.1946
448.0,0.1961
449.0,0.1953
450.0,0.1992
451.0,0.205
452.0,0.1961
453.0,0.1832
454.0,0.1899
455.0,0.1896
456.0,0.1926
457.0,0.1942
458.0,0.186
459.0,0.1835
460.0,0.1825
461.0,0.1853
462.0,0.1854
463.0,0.183
464.0,0.1789
465.0,0.1756
466.0,0.1761
467.0,0.1715
468.0,0.1721
469.0,0.1716
470.0,0.1649
471.0,0.1635
472.0,0.1711
473.0,0.1677
474.0,0.1667
475.0,0.1668
476.0,0.1604
477.0,0.1594
478.0,0.1624
479.0,0.1599
480.0,0.1588
481.0,0.1603
482.0,0.1599
483.0,0.1569
484.0,0.1527
485.0,0.1446
486.0,0.1256
487.0,0.1308
488.0,0.1424
489.0,0.1417
490.0,0.1479
491.0,0.1442
492.0,0.1352
493.0,0.1386
494.0,0.1389
495.0,0.1391
496.0,0.1389
497.0,0.1399
498.0,0.1322
499.0,0.1326
500.0,0.1275
501.0,0.124
502.0,0.121
503.0,0.1247
504.0,0.1204
505.0,0.1238
506.0,0.1269
507.0,0.12
508.0,0.1155
509.0,0.1181
510.0,0.1167
511.0,0.1191
512.0,0.1195
513.0,0.1122
514.0,0.1106
515.0,0.1087
516.0,0.1076
517.0,0.09491
518.0,0.09905
519.0,0.1031
520.0,0.106
521.0,0.1062
522.0,0.1054
523.0,0.1027
524.0,0.1055
525.0,0.1058
526.0,0.1002
527.0,0.09357
528.0,0.09806
529.0,0.1025
530.0,0.1002
531.0,0.1009
532.0,0.09672
533.0,0.09323
534.0,0.09534
535.0,0.0968
536.0,0.09707
537.0,0.09262
538.0,0.0936
539.0,0.0922
540.0,0.08779
541.0,0.08768
542.0,0.0897
543.0,0.08808
544.0,0.08899
545.0,0.08815
546.0,0.08788
547.0,0.08721
548.0,0.08557
549.0,0.08525
550.0,0.08567
551.0,0.08404
552.0,0.08402
553.0,0.08192
554.0,0.08329
555.0,0.08285
556.0,0.08114
557.0,0.078
558.0,0.07676
559.0,0.07469
560.0,0.07499
561.0,0.07533
562.0,0.07415
563.0,0.07555
564.0,0.07294
565.0,0.07177
566.0,0.07018
567.0,0.07095
568.0,0.06976
569.0,0.06752
570.0,0.06704
571.0,0.06618
572.0,0.06721
573.0,0.06748
574.0,0.06685
575.0,0.0652
576.0,0.06423
577.0,0.06457
578.0,0.06328
579.0,0.06324
580.0,0.06417
581.0,0.06419
582.0,0.06509
583.0,0.06495
584.0,0.06521
585.0,0.06327
586.0,0.06158
587.0,0.06249
588.0,0.0605
589.0,0.05306
590.0,0.05517
591.0,0.05814
592.0,0.05694
593.0,0.05745
594.0,0.05658
595.0,0.05471
596.0,0.05664
597.0,0.05559
598.0,0.05507
599.0,0.05474
600.0,0.05449
601.0,0.05373
602.0,0.05305
603.0,0.05363
604.0,0.05422
605.0,0.05367
606.0,0.05322
607.0,0.05352
608.0,0.0527
609.0,0.05256
610.0,0.05198
611.0,0.05205
612.0,0.05169
613.0,0.05081
614.0,0.04991
615.0,0.05079
616.0,0.04891
617.0,0.0486
618.0,0.05025
619.0,0.04952
620.0,0.0496
621.0,0.0494
622.0,0.04856
623.0,0.04756
624.0,0.04652
625.0,0.04621
626.0,0.04668
627.0,0.04695
628.0,0.04317
629.0,0.04522
630.0,0.04395
631.0,0.04487
632.0,0.04416
633.0,0.04538
634.0,0.0448
635.0,0.04531
636.0,0.04453
637.0,0.04507
638.0,0.04534
639.0,0.04466
640.0,0.04404
641.0,0.04382
642.0,0.04346
643.0,0.04387
644.0,0.04356
645.0,0.04341
646.0,0.04214
647.0,0.04133
648.0,0.04115
649.0,0.04016
650.0,0.04031
651.0,0.04189
652.0,0.03977
653.0,0.04095
654.0,0.04033
655.0,0.03854
656.0,0.03406
657.0,0.03484
658.0,0.03893
659.0,0.03905
660.0,0.03903
661.0,0.03912
662.0,0.039
663.0,0.03808
664.0,0.03841
665.0,0.03829
666.0,0.03816
667.0,0.03798
668.0,0.03784
669.0,0.03826
670.0,0.03792
671.0,0.03776
672.0,0.0373
673.0,0.03773
674.0,0.03742
675.0,0.03691
676.0,0.037
677.0,0.03649
678.0,0.03645
679.0,0.0357
680.0,0.03583
681.0,0.03543
682.0,0.03522
683.0,0.03498
684.0,0.03463
685.0,0.03476
686.0,0.0344
687.0,0.02127
688.0,0.02543
689.0,0.02542
690.0,0.02676
691.0,0.02832
692.0,0.02946
693.0,0.02906
694.0,0.02865
695.0,0.0299
696.0,0.0298
697.0,0.03181
698.0,0.03118
699.0,0.03009
700.0,0.02958
701.0,0.02911
702.0,0.02925
703.0,0.02917
704.0,0.03007
705.0,0.02996
706.0,0.02984
707.0,0.02974
708.0,0.02966
709.0,0.02962
710.0,0.02944
711.0,0.02932
712.0,0.02915
713.0,0.02869
714.0,0.02865
715.0,0.02754
716.0,0.02741
717.0,0.02306
718.0,0.0209
719.0,0.0189
720.0,0.01976
721.0,0.02208
722.0,0.02568
723.0,0.0235
724.0,0.02077
725.0,0.0203
726.0,0.02126
727.0,0.02152
728.0,0.01997
729.0,0.02081
730.0,0.02199
731.0,0.02084
732.0,0.02243
733.0,0.02386
734.0,0.02437
735.0,0.02372
736.0,0.02359
737.0,0.02356
738.0,0.02395
739.0,0.02336
740.0,0.02389
741.0,0.02357
742.0,0.0235
743.0,0.02397
744.0,0.02379
745.0,0.02369
746.0,0.02369
747.0,0.02363
748.0,0.02346
749.0,0.02308
750.0,0.02296
751.0,0.02264
752.0,0.02264
753.0,0.02265
754.0,0.02259
755.0,0.02236
756.0,0.02226
757.0,0.02219
758.0,0.02181
759.0,0.02119
760.0,0.002903
761.0,0.0015
762.0,0.009566
763.0,0.004454
764.0,0.006879
765.0,0.00942
766.0,0.01192
767.0,0.0155
768.0,0.01831
769.0,0.01873
770.0,0.01942
771.0,0.01955
772.0,0.01951
773.0,0.01955
774.0,0.01935
775.0,0.01912
776.0,0.01926
777.0,0.01891
778.0,0.0187
779.0,0.01861
780.0,0.01843
781.0,0.01836
782.0,0.0184
783.0,0.018
784.0,0.01801
785.0,0.0178
786.0,0.01791
787.0,0.01747
788.0,0.01715
789.0,0.01705
790.0,0.01644
791.0,0.01659
792.0,0.0164
793.0,0.01605
794.0,0.01634
795.0,0.01652
796.0,0.01582
797.0,0.01578
798.0,0.01627
799.0,0.01607
800.0,0.01569
801.0,0.01554
802.0,0.01543
803.0,0.01523
804.0,0.01519
805.0,0.0151
806.0,0.0155
807.0,0.01523
808.0,0.01517
809.0,0.01478
810.0,0.01456
811.0,0.01447
812.0,0.01391
813.0,0.0135
814.0,0.01157
815.0,0.01144
816.0,0.0105
817.0,0.01067
818.0,0.01019
819.0,0.01157
820.0,0.01076
821.0,0.01287
822.0,0.01238
823.0,0.007877
824.0,0.01184
825.0,0.0124
826.0,0.01178
827.0,0.0125
828.0,0.01026
829.0,0.01158
830.0,0.01135
831.0,0.01135
832.0,0.0109
833.0,0.01173
834.0,0.01118
835.0,0.01242
836.0,0.01172
837.0,0.01236
838.0,0.01187
839.0,0.01207
840.0,0.01229
841.0,0.01204
842.0,0.01205
843.0,0.01202
844.0,0.01178
845.0,0.01215
846.0,0.01205
847.0,0.01178
848.0,0.01164
849.0,0.01125
850.0,0.01073
851.0,0.01129
852.0,0.01116
853.0,0.01071
854.0,0.009192
855.0,0.01007
856.0,0.01096
857.0,0.01117
858.0,0.01104
859.0,0.01101
860.0,0.01099
861.0,0.01088
862.0,0.01101
863.0,0.01123
864.0,0.01063
865.0,0.0105
866.0,0.009399
867.0,0.009768
868.0,0.01059
869.0,0.01032
870.0,0.01058
871.0,0.01039
872.0,0.01031
873.0,0.01025
874.0,0.01008
875.0,0.00983
876.0,0.009888
877.0,0.009947
878.0,0.01001
879.0,0.009814
880.0,0.009564
881.0,0.009374
882.0,0.009537
883.0,0.009534
884.0,0.009445
885.0,0.009473
886.0,0.008965
887.0,0.009044
888.0,0.009126
889.0,0.009213
890.0,0.009067
891.0,0.00903
892.0,0.008703
893.0,0.008349
894.0,0.00794
895.0,0.007372
896.0,0.006831
897.0,0.005694
898.0,0.006278
899.0,0.004551
900.0,0.006447
901.0,0.004793
902.0,0.005776
903.0,0.005767
904.0,0.007559
905.0,0.00722
906.0,0.006677
907.0,0.005183
908.0,0.005303
909.0,0.005825
910.0,0.004983
911.0,0.005374
912.0,0.005636
913.0,0.004994
914.0,0.004942
915.0,0.005395
916.0,0.004442
917.0,0.005856
918.0,0.004534
919.0,0.005938
920.0,0.006028
921.0,0.006306
922.0,0.00549
923.0,0.006046
924.0,0.005589
925.0,0.005429
926.0,0.00548
927.0,0.006224
928.0,0.004255
929.0,0.003807
930.0,0.002861
931.0,0.002688
932.0,0.001838
933.0,0.00145
934.0,0.0007404
935.0,0.001486
936.0,0.0008796
937.0,0.0008868
938.0,0.001105
939.0,0.002515
940.0,0.003104
941.0,0.002238
942.0,0.002633
943.0,0.001631
944.0,0.001743
945.0,0.002276
946.0,0.001063
947.0,0.002259
948.0,0.001604
949.0,0.003131
950.0,0.0007418
951.0,0.003064
952.0,0.001502
953.0,0.002004
954.0,0.002541
955.0,0.002026
956.0,0.00197
957.0,0.001474
958.0,0.002918
959.0,0.00221
960.0,0.0025
961.0,0.002863
962.0,0.00268
963.0,0.003162
964.0,0.002846
965.0,0.003127
966.0,0.003112
967.0,0.003077
968.0,0.004401
969.0,0.004593
970.0,0.004137
971.0,0.004872
972.0,0.004597
973.0,0.003856
974.0,0.003619
975.0,0.003775
976.0,0.003518
977.0,0.004125
978.0,0.003849
979.0,0.004063
980.0,0.003759
981.0,0.004662
982.0,0.00439
983.0,0.004166
984.0,0.004805
985.0,0.004326
986.0,0.004885
987.0,0.004737
988.0,0.004709
989.0,0.004833
990.0,0.004647
991.0,0.0048
992.0,0.004814
993.0,0.004657
994.0,0.004782
995.0,0.004764
996.0,0.004719
997.0,0.004711
998.0,0.00467
999.0,0.004637
1000.0,0.00458
1001.0,0.004629
1002.0,0.00445
1003.0,0.00451
1004.0,0.004374
1005.0,0.004209
1006.0,0.00435
1007.0,0.004428
1008.0,0.004382
1009.0,0.004336
1010.0,0.004297
1011.0,0.004341
1012.0,0.00428
1013.0,0.0043
1014.0,0.004254
1015.0,0.004209
1016.0,0.004173
1017.0,0.004166
1018.0,0.004138
1019.0,0.004022
1020.0,0.004082
1021.0,0.004063
1022.0,0.004011
1023.0,0.004038
1024.0,0.003959
1025.0,0.00401
1026.0,0.003975
1027.0,0.003951
1028.0,0.003927
1029.0,0.003866
1030.0,0.003882
1031.0,0.00385
1032.0,0.003825
1033.0,0.003753
1034.0,0.003739
1035.0,0.003736
1036.0,0.00374
1037.0,0.003665
1038.0,0.003668
1039.0,0.003652
1040.0,0.003623
1041.0,0.003623
1042.0,0.003584
1043.0,0.003559
1044.0,0.003558
1045.0,0.003496
1046.0,0.003443
1047.0,0.003461
1048.0,0.003467
1049.0,0.003441
1050.0,0.003412
1051.0,0.003393
1052.0,0.003366
1053.0,0.003326
1054.0,0.00332
1055.0,0.003308
1056.0,0.003283
1057.0,0.003259
1058.0,0.003166
1059.0,0.003157
1060.0,0.00314
1061.0,0.003123
1062.0,0.003126
1063.0,0.003083
1064.0,0.00311
1065.0,0.003072
1066.0,0.003003
1067.0,0.00303
1068.0,0.00295
1069.0,0.00285
1070.0,0.002933
1071.0,0.002977
1072.0,0.002924
1073.0,0.002874
1074.0,0.002949
1075.0,0.002763
1076.0,0.002923
1077.0,0.002844
1078.0,0.002774
1079.0,0.002849
1080.0,0.002766
1081.0,0.00266
1082.0,0.002715
1083.0,0.002718
1084.0,0.002615
1085.0,0.002729
1086.0,0.002432
1087.0,0.00254
1088.0,0.002661
1089.0,0.002545
1090.0,0.002459
1091.0,0.002616
1092.0,0.002606
1093.0,0.002124
1094.0,0.002359
1095.0,0.002213
1096.0,0.002088
1097.0,0.002503
1098.0,0.002035
1099.0,0.002126
1100.0,0.001934
1101.0,0.001963
1102.0,0.001851
1103.0,0.001813
1104.0,0.001812
1105.0,0.002026
1106.0,0.001443
1107.0,0.001889
1108.0,0.001531
1109.0,0.001534
1110.0,0.001845
1111.0,0.001152
1112.0,0.001509
1113.0,0.0008769
1114.0,0.0009894
1115.0,0.0008002
1116.0,0.000609
1117.0,0.0001985
1118.0,0.0006673
1119.0,0.0003032
1120.0,0.0003848
1121.0,0.000525
1122.0,0.0002016
1123.0,0.000342
1124.0,0.0002847
1125.0,0.0003794
1126.0,0.0001187
1127.0,0.0004287
1128.0,0.0002398
1129.0,0.0002554
1130.0,0.0001622
1131.0,0.0008755
1132.0,0.0006627
1133.0,0.000391
1134.0,8.899e-05
1135.0,3.271e-05
1136.0,0.0003149
1137.0,0.0008359
1138.0,0.0005656
1139.0,0.0009064
1140.0,0.0007285
1141.0,0.0005299
1142.0,0.0006205
1143.0,0.0009238
1144.0,0.0002819
1145.0,0.000361
1146.0,0.0003897
1147.0,0.0001236
1148.0,0.0007723
1149.0,0.0005926
1150.0,0.0002998
1151.0,0.0005361
1152.0,0.0006809
1153.0,0.000667
1154.0,0.0003382
1155.0,0.0008997
1156.0,0.0007918
1157.0,0.0009088
1158.0,0.0008946
1159.0,0.000981
1160.0,0.0008126
1161.0,0.001044
1162.0,0.001041
1163.0,0.001495
1164.0,0.001239
1165.0,0.001144
1166.0,0.001141
1167.0,0.001257
1168.0,0.001266
1169.0,0.001304
1170.0,0.001435
1171.0,0.001388
1172.0,0.001418
1173.0,0.001417
1174.0,0.0009428
1175.0,0.001382
1176.0,0.001544
1177.0,0.001459
1178.0,0.001034
1179.0,0.001543
1180.0,0.001334
1181.0,0.00138
1182.0,0.0008868
1183.0,0.001358
1184.0,0.001245
1185.0,0.001184
1186.0,0.001454
1187.0,0.001364
1188.0,0.0008869
1189.0,0.001255
1190.0,0.0014
1191.0,0.001303
1192.0,0.001414
1193.0,0.001339
1194.0,0.001385
1195.0,0.00129
1196.0,0.001227
1197.0,0.001384
1198.0,0.001244
1199.0,0.001018
1200.0,0.001296
1201.0,0.001233
1202.0,0.001226
1203.0,0.001217
1204.0,0.00103
1205.0,0.001254
1206.0,0.001411
1207.0,0.001205
1208.0,0.001194
1209.0,0.001215
1210.0,0.001273
1211.0,0.001193
1212.0,0.001164
1213.0,0.001328
1214.0,0.001192
1215.0,0.001161
1216.0,0.001312
1217.0,0.001265
1218.0,0.001292
1219.0,0.001269
1220.0,0.001286
1221.0,0.001299
1222.0,0.001255
1223.0,0.001237
1224.0,0.001221
1225.0,0.001273
1226.0,0.001282
1227.0,0.001161
1228.0,0.001284
1229.0,0.00127
1230.0,0.001241
1231.0,0.001283
1232.0,0.001271
1233.0,0.00121
1234.0,0.001272
1235.0,0.001258
1236.0,0.001265
1237.0,0.001238
1238.0,0.001252
1239.0,0.001232
1240.0,0.001234
1241.0,0.001221
1242.0,0.001217
1243.0,0.001203
1244.0,0.001206
1245.0,0.001208
1246.0,0.001197
1247.0,0.001188
1248.0,0.001182
1249.0,0.001183
1250.0,0.001171
1251.0,0.00115
1252.0,0.001149
1253.0,0.001132
1254.0,0.001114
1255.0,0.001136
1256.0,0.001093
1257.0,0.001082
1258.0,0.001105
1259.0,0.001049
1260.0,0.001053
1261.0,0.0009765
1262.0,0.000937
1263.0,0.0009357
1264.0,0.0008449
1265.0,0.0009246
1266.0,0.0008774
1267.0,0.0008968
1268.0,0.0008372
1269.0,0.0004638
1270.0,0.0008835
1271.0,0.000948
1272.0,0.0009498
1273.0,0.0009351
1274.0,0.0009372
1275.0,0.0009506
1276.0,0.0009595
1277.0,0.0009657
1278.0,0.0009872
1279.0,0.0009747
1280.0,0.0009596
1281.0,0.0009155
1282.0,0.0008838
1283.0,0.000948
1284.0,0.0009666
1285.0,0.0009707
1286.0,0.0009833
1287.0,0.0009603
1288.0,0.0009583
1289.0,0.0009163
1290.0,0.0009444
1291.0,0.000956
1292.0,0.0008788
1293.0,0.0009271
1294.0,0.0009167
1295.0,0.0009059
1296.0,0.0008517
1297.0,0.0007943
1298.0,0.000869
1299.0,0.0009124
1300.0,0.00074
1301.0,0.0007665
1302.0,0.0008566
1303.0,0.0007252
1304.0,0.0005935
1305.0,0.0008278
1306.0,0.0008245
1307.0,0.0006056
1308.0,0.0007165
1309.0,0.0008087
1310.0,0.0005868
1311.0,0.0006749
1312.0,0.0006531
1313.0,0.0006338
1314.0,0.0005529
1315.0,0.0005435
1316.0,0.0006521
1317.0,0.0006094
1318.0,0.0006727
1319.0,0.0004957
1320.0,0.0004789
1321.0,0.0005717
1322.0,0.0005744
1323.0,0.0004076
1324.0,0.0004782
1325.0,0.000623
1326.0,0.0005169
1327.0,0.000487
1328.0,0.0004085
1329.0,0.0002905
1330.0,0.0003909
1331.0,0.0002173
1332.0,0.0002262
1333.0,0.0003253
1334.0,0.0002734
1335.0,0.0003914
1336.0,0.0002967
1337.0,0.0002571
1338.0,0.0002794
1339.0,0.0002784
1340.0,0.0002706
1341.0,0.0002588
1342.0,0.0002728
1343.0,0.0001718
1344.0,9.947e-05
1345.0,0.0001464
1346.0,6.741e-05
1347.0,6.802e-05
1348.0,4.093e-06
1349.0,1.488e-05
1350.0,1.548e-05
1351.0,3.666e-06
1352.0,9.803e-07
1353.0,4.98e-08
1354.0,1.712e-07
1355.0,1.378e-09
1356.0,2.412e-08
1357.0,3.664e-08
1358.0,1.617e-09
1359.0,2.038e-10
1360.0,7.364e-10
1361.0,8.237e-13
1362.0,2.253e-15
1363.0,9.901e-10
1364.0,4.088e-10
1365.0,7.866e-16
1366.0,4.291e-09
1367.0,1.751e-09
1368.0,6.074e-18
1369.0,1.506e-10
1370.0,7.417e-11
1371.0,4.204e-12
1372.0,9.498e-10
1373.0,1.914e-08
1374.0,8.878e-08
1375.0,1.61e-07
1376.0,1.445e-07
1377.0,6.596e-08
1378.0,6.457e-07
1379.0,2.756e-08
1380.0,3.96e-08
1381.0,1.031e-09
1382.0,8.324e-10
1383.0,1.244e-11
1384.0,1.632e-10
1385.0,7.802e-10
1386.0,7.339e-10
1387.0,8.878e-08
1388.0,1.746e-09
1389.0,2.999e-07
1390.0,2.574e-07
1391.0,1.711e-07
1392.0,1.109e-08
1393.0,5.876e-08
1394.0,3.028e-08
1395.0,2.218e-10
1396.0,1.072e-12
1397.0,2.313e-08
1398.0,6.847e-07
1399.0,4.33e-07
1400.0,4.584e-13
1401.0,1.902e-12
1402.0,1.203e-06
1403.0,1.507e-06
1404.0,4.568e-07
1405.0,1.05e-10
1406.0,1.181e-06
1407.0,1.039e-07
1408.0,9.61e-07
1409.0,3.198e-07
1410.0,2.561e-07
1411.0,1.295e-06
1412.0,1.751e-06
1413.0,1.867e-05
1414.0,1.999e-07
1415.0,9.544e-08
1416.0,3.165e-05
1417.0,9.04e-06
1418.0,1.022e-05
1419.0,1.552e-06
1420.0,6.182e-06
1421.0,6.684e-06
1422.0,4.1e-05
1423.0,7.578e-06
1424.0,1.44e-05
1425.0,2.111e-05
1426.0,2.442e-05
1427.0,4.679e-05
1428.0,3.043e-06
1429.0,3.382e-05
1430.0,6.039e-05
1431.0,6.693e-05
1432.0,2.362e-06
1433.0,4.086e-05
1434.0,2.002e-05
1435.0,1.913e-05
1436.0,3.88e-05
1437.0,2.944e-05
1438.0,1.182e-05
1439.0,5.357e-05
1440.0,3.966e-05
1441.0,2.907e-05
1442.0,3.228e-05
1443.0,4.196e-05
1444.0,5.966e-05
1445.0,4.477e-05
1446.0,1.929e-05
1447.0,3.086e-05
1448.0,0.0001203
1449.0,0.0001017
1450.0,2.259e-05
1451.0,8.689e-06
1452.0,5.742e-05
1453.0,7.706e-05
1454.0,0.0001447
1455.0,6.207e-05
1456.0,8.375e-05
1457.0,0.0001182
1458.0,0.0001455
1459.0,0.0001737
1460.0,8.343e-05
1461.0,8.512e-05
1462.0,0.0001321
1463.0,3.787e-05
1464.0,0.0001621
1465.0,9.266e-05
1466.0,5.811e-05
1467.0,2.863e-05
1468.0,6.984e-05
1469.0,8.85e-05
1470.0,3.992e-05
1471.0,1.372e-05
1472.0,3.786e-05
1473.0,6.102e-05
1474.0,9.467e-05
1475.0,0.0001964
1476.0,6.111e-05
1477.0,6.075e-05
1478.0,5.724e-05
1479.0,0.000118
1480.0,5.162e-05
1481.0,0.0001108
1482.0,5.09e-05
1483.0,0.0001491
1484.0,0.0001396
1485.0,0.0001211
1486.0,0.0001176
1487.0,4.871e-05
1488.0,9.27e-05
1489.0,0.0002005
1490.0,0.0001839
1491.0,0.0002138
1492.0,0.0001667
1493.0,0.0001875
1494.0,0.0002175
1495.0,0.0001893
1496.0,0.0001749
1497.0,0.0002566
1498.0,0.0001999
1499.0,0.0002393
1500.0,0.0002839
1501.0,0.0002996
1502.0,0.0002474
1503.0,0.0002026
1504.0,0.0001561
1505.0,0.0001939
1506.0,0.0002982
1507.0,0.0002835
1508.0,0.0002683
1509.0,0.0001933
1510.0,0.000308
1511.0,0.0002946
1512.0,0.0002926
1513.0,0.000262
1514.0,0.000241
1515.0,0.0002997
1516.0,0.000284
1517.0,0.0002749
1518.0,0.0002737
1519.0,0.0002654
1520.0,0.0002893
1521.0,0.0003134
1522.0,0.0002937
1523.0,0.0003168
1524.0,0.0003047
1525.0,0.0002875
1526.0,0.0002919
1527.0,0.0002887
1528.0,0.000311
1529.0,0.000293
1530.0,0.0002864
1531.0,0.0002941
1532.0,0.0003078
1533.0,0.0003076
1534.0,0.000301
1535.0,0.000298
1536.0,0.0003037
1537.0,0.0002957
1538.0,0.0002991
1539.0,0.0002928
1540.0,0.0002937
1541.0,0.0002949
1542.0,0.0002904
1543.0,0.0002954
1544.0,0.0002906
1545.0,0.0002964
1546.0,0.0002906
1547.0,0.0002862
1548.0,0.0002855
1549.0,0.0002876
1550.0,0.0002848
1551.0,0.0002861
1552.0,0.0002828
1553.0,0.0002809
1554.0,0.0002776
1555.0,0.0002779
1556.0,0.0002769
1557.0,0.0002796
1558.0,0.0002774
1559.0,0.0002749
1560.0,0.0002762
1561.0,0.0002775
1562.0,0.0002731
1563.0,0.0002704
1564.0,0.000271
1565.0,0.000271
1566.0,0.0002667
1567.0,0.0002667
1568.0,0.0002633
1569.0,0.0002645
1570.0,0.0002663
1571.0,0.0002678
1572.0,0.0002655
1573.0,0.0002631
1574.0,0.0002531
1575.0,0.0002494
1576.0,0.0002447
1577.0,0.0002378
1578.0,0.000249
1579.0,0.0002504
1580.0,0.0002522
1581.0,0.0002479
1582.0,0.0002424
1583.0,0.0002429
1584.0,0.0002472
1585.0,0.0002494
1586.0,0.0002458
1587.0,0.0002413
1588.0,0.0002343
1589.0,0.0002265
1590.0,0.000231
1591.0,0.0002362
1592.0,0.0002423
1593.0,0.0002458
1594.0,0.0002446
1595.0,0.000241
1596.0,0.0002333
1597.0,0.0002385
1598.0,0.0002415
1599.0,0.0002383
1600.0,0.0002363
1601.0,0.0002323
1602.0,0.0002323
1603.0,0.0002343
1604.0,0.0002319
1605.0,0.0002312
1606.0,0.000228
1607.0,0.0002294
1608.0,0.0002285
1609.0,0.0002221
1610.0,0.0002169
1611.0,0.0002202
1612.0,0.0002224
1613.0,0.000222
1614.0,0.0002216
1615.0,0.0002162
1616.0,0.0002123
1617.0,0.0002159
1618.0,0.0002192
1619.0,0.0002144
1620.0,0.0002096
1621.0,0.0002114
1622.0,0.0002142
1623.0,0.0002168
1624.0,0.0002136
1625.0,0.0002123
1626.0,0.0002122
1627.0,0.0002134
1628.0,0.0002122
1629.0,0.0002099
1630.0,0.0002081
1631.0,0.0002061
1632.0,0.0002053
1633.0,0.0001981
1634.0,0.0002027
1635.0,0.0001987
1636.0,0.000197
1637.0,0.0001946
1638.0,0.0001815
1639.0,0.0001895
1640.0,0.0001793
1641.0,0.000187
1642.0,0.0001905
1643.0,0.0001774
1644.0,0.0001897
1645.0,0.0001826
1646.0,0.0001768
1647.0,0.0001912
1648.0,0.0001754
1649.0,0.0001853
1650.0,0.0001863
1651.0,0.00017
1652.0,0.0001832
1653.0,0.0001848
1654.0,0.0001728
1655.0,0.0001839
1656.0,0.0001797
1657.0,0.0001809
1658.0,0.0001833
1659.0,0.0001814
1660.0,0.0001825
1661.0,0.0001809
1662.0,0.0001749
1663.0,0.0001794
1664.0,0.0001771
1665.0,0.0001653
1666.0,0.0001298
1667.0,0.0001628
1668.0,0.00017
1669.0,0.0001705
1670.0,0.0001735
1671.0,0.0001678
1672.0,0.0001656
1673.0,0.0001692
1674.0,0.0001645
1675.0,0.0001617
1676.0,0.0001626
1677.0,0.0001617
1678.0,0.000156
1679.0,0.0001601
1680.0,0.0001531
1681.0,0.0001474
1682.0,0.0001561
1683.0,0.000159
1684.0,0.0001443
1685.0,0.00016
1686.0,0.0001592
1687.0,0.0001517
1688.0,0.0001573
1689.0,0.0001552
1690.0,0.000154
1691.0,0.0001375
1692.0,0.0001524
1693.0,0.0001571
1694.0,0.0001498
1695.0,0.0001545
1696.0,0.0001542
1697.0,0.0001252
1698.0,0.0001518
1699.0,0.0001493
1700.0,0.0001444
1702.0,0.0001469
1705.0,0.0001406
1710.0,0.000131
1715.0,0.0001299
1720.0,0.0001272
1725.0,0.0001161
1730.0,0.0001137
1735.0,0.0001047
1740.0,0.0001049
1745.0,9.653e-05
1750.0,0.0001031
1755.0,9.263e-05
1760.0,9.649e-05
1765.0,7.565e-05
1770.0,8.069e-05
1775.0,6.176e-05
1780.0,5.113e-05
1785.0,3.641e-05
1790.0,4.257e-05
1795.0,1.875e-05
1800.0,1.276e-05
1805.0,4.723e-06
1810.0,3.052e-06
1815.0,8.561e-07
1820.0,2.125e-07
1825.0,2.775e-07
1830.0,6.734e-10
1835.0,1.02e-09
1840.0,5.949e-12
1845.0,6.361e-10
1850.0,2.871e-10
1855.0,2.744e-11
1860.0,1.573e-09
1865.0,2.191e-09
1870.0,1.199e-14
1875.0,2.167e-14
1880.0,1.154e-08
1885.0,6.15e-09
1890.0,3.374e-08
1895.0,1.958e-08
1900.0,8.363e-11
1905.0,5.696e-11
1910.0,2.759e-09
1915.0,2.688e-09
1920.0,7.057e-08
1925.0,1.661e-07
1930.0,9.588e-08
1935.0,7.385e-07
1940.0,7.37e-07
1945.0,3.129e-06
1950.0,6.297e-06
1955.0,5.538e-06
1960.0,1.025e-05
1965.0,1.552e-05
1970.0,2.268e-05
1975.0,2.598e-05
1980.0,2.61e-05
1985.0,2.826e-05
1990.0,2.909e-05
1995.0,3.083e-05
2000.0,3.247e-05
2005.0,2.646e-05
2010.0,3.968e-05
2015.0,2.977e-05
2020.0,3.198e-05
2025.0,3.502e-05
2030.0,3.144e-05
2035.0,3.453e-05
2040.0,3.228e-05
2045.0,3.315e-05
2050.0,3.351e-05
2055.0,3.162e-05
2060.0,3.019e-05
2065.0,3.056e-05
2070.0,2.986e-05
2075.0,3.041e-05
2080.0,2.932e-05
2085.0,2.888e-05
2090.0,2.899e-05
2095.0,2.781e-05
2100.0,2.545e-05
2105.0,2.758e-05
2110.0,2.607e-05
2115.0,2.662e-05
2120.0,2.46e-05
2125.0,2.483e-05
2130.0,2.5e-05
2135.0,2.501e-05
2140.0,2.502e-05
2145.0,2.453e-05
2150.0,2.256e-05
2155.0,2.239e-05
2160.0,2.198e-05
2165.0,1.977e-05
2170.0,2.1e-05
2175.0,2.019e-05
2180.0,2.067e-05
2185.0,1.807e-05
2190.0,1.954e-05
2195.0,1.917e-05
2200.0,1.64e-05
2205.0,1.733e-05
2210.0,1.89e-05
2215.0,1.777e-05
2220.0,1.807e-05
2225.0,1.73e-05
2230.0,1.725e-05
2235.0,1.661e-05
2240.0,1.625e-05
2245.0,1.535e-05
2250.0,1.56e-05
2255.0,1.424e-05
2260.0,1.383e-05
2265.0,1.413e-05
2270.0,1.302e-05
2275.0,1.268e-05
2280.0,1.332e-05
2285.0,1.222e-05
2290.0,1.213e-05
2295.0,1.169e-05
2300.0,1.087e-05
2305.0,1.089e-05
2310.0,1.21e-05
2315.0,1.052e-05
2320.0,8.958e-06
2325.0,1.017e-05
2330.0,1.006e-05
2335.0,1.028e-05
2340.0,7.543e-06
2345.0,8.615e-06
2350.0,6.558e-06
2355.0,7.741e-06
2360.0,8.242e-06
2365.0,8.091e-06
2370.0,4.316e-06
2375.0,6.871e-06
2380.0,6.503e-06
2385.0,4.405e-06
2390.0,5.33e-06
2395.0,5.907e-06
2400.0,6.506e-06
2405.0,4.716e-06
2410.0,4.683e-06
2415.0,3.614e-06
2420.0,3.473e-06
2425.0,4.437e-06
2430.0,6.26e-06
2435.0,1.737e-06
2440.0,5.984e-06
2445.0,2.487e-06
2450.0,1.515e-06
2455.0,3.025e-06
2460.0,4.153e-06
2465.0,2.803e-06
2470.0,1.791e-06
2475.0,1.73e-06
2480.0,7.828e-07
2485.0,5.007e-07
2490.0,2.843e-07
2495.0,2.457e-07
2500.0,6.213e-07
2505.0,1.236e-07
2510.0,1.825e-07
2515.0,3.816e-08
2520.0,2.136e-08
2525.0,2.433e-09
2530.0,1.692e-11
2535.0,3.743e-12
2540.0,8.879e-12
2545.0,6.886e-16
2550.0,2.792e-18
2555.0,1.34e-14
2560.0,4.022e-16
2565.0,9.003e-20
2570.0,2.681e-24
2575.0,1.6960000000000001e-34
2580.0,1.7680000000000001e-28
2585.0,3.6950000000000004e-42
2590.0,2.306e-38
2595.0,4.487e-40
2600.0,3.694e-35
2605.0,4.082e-42
2610.0,1.405e-41
2615.0,1.4009999999999999e-45
2620.0,1.238e-35
2625.0,2.267e-35
2630.0,0.0
2635.0,1.181e-21
2640.0,2.5559999999999996e-22
2645.0,1.114e-24
2650.0,1.11e-25
2655.0,1.3340000000000001e-34
2660.0,1.124e-31
2665.0,1.121e-44
2670.0,0.0
2675.0,5.464999999999999e-44
2680.0,2.2780000000000003e-30
2685.0,2.176e-31
2690.0,8.143e-31
2695.0,3.194e-33
2700.0,9.303999999999999e-29
2705.0,2.639e-26
2710.0,2.101e-31
2715.0,2.653e-29
2720.0,0.0
2725.0,5.941e-27
2730.0,1.732e-24
2735.0,1.9750000000000001e-26
2740.0,3.568e-32
2745.0,4.6e-27
2750.0,2.578e-26
2755.0,4.148e-28
2760.0,6.215e-23
2765.0,2.917e-29
2770.0,1.4330000000000002e-26
2775.0,1.769e-23
2780.0,8.238000000000001e-21
2785.0,3.093e-20
2790.0,7.053e-18
2795.0,1.552e-18
2800.0,4.952e-15
2805.0,9.261e-17
2810.0,3.713e-13
2815.0,1.108e-13
2820.0,1.353e-15
2825.0,1.188e-11
2830.0,2.582e-10
2835.0,3.556e-15
2840.0,7.609e-12
2845.0,2.634e-09
2850.0,4.557e-11
2855.0,1.82e-11
2860.0,9.464e-10
2865.0,6.979e-09
2870.0,1.77e-10
2875.0,1.699e-08
2880.0,1.071e-08
2885.0,1.764e-08
2890.0,7.498e-09
2895.0,1.28e-07
2900.0,3.564e-08
2905.0,4.123e-09
2910.0,1.306e-07
2915.0,5.537e-08
2920.0,1.376e-07
2925.0,4.899e-08
2930.0,2.974e-07
2935.0,3.28e-07
2940.0,7.321e-08
2945.0,6.284e-08
2950.0,2.544e-07
2955.0,1.131e-07
2960.0,2.248e-07
2965.0,3.813e-07
2970.0,1.486e-08
2975.0,3.766e-08
2980.0,5.862e-08
2985.0,3.465e-07
2990.0,5.263e-07
2995.0,1.989e-07
3000.0,3.792e-07
3005.0,1.286e-07
3010.0,3.319e-07
3015.0,2.569e-07
3020.0,2.311e-08
3025.0,3.548e-07
3030.0,2.793e-07
3035.0,1.058e-07
3040.0,8.267e-08
3045.0,1.779e-07
3050.0,4.019e-08
3055.0,9.819e-09
3060.0,2.778e-07
3065.0,1.171e-07
3070.0,6.571e-08
3075.0,2.59e-07
3080.0,1.501e-07
3085.0,6.609e-08
3090.0,8.993e-08
3095.0,2.206e-08
3100.0,1.805e-07
3105.0,3.363e-08
3110.0,2.812e-08
3115.0,8.463e-08
3120.0,4.196e-07
3125.0,1.222e-07
3130.0,2.44e-07
3135.0,4.925e-07
3140.0,1.294e-07
3145.0,1.269e-07
3150.0,2.695e-07
3155.0,2.266e-07
3160.0,3.78e-07
3165.0,5.993e-07
3170.0,5.302e-07
3175.0,3.699e-07
3180.0,4.385e-07
3185.0,3.043e-07
3190.0,1.587e-07
3195.0,8.752e-08
3200.0,1.229e-08
3205.0,8.02e-09
3210.0,3.34e-09
3215.0,1.36e-08
3220.0,4.788e-08
3225.0,5.486e-09
3230.0,9.116e-09
3235.0,2.608e-07
3240.0,1.172e-07
3245.0,2.211e-08
3250.0,8.204e-08
3255.0,3.587e-07
3260.0,3.491e-08
3265.0,7.595e-08
3270.0,3.557e-08
3275.0,2.181e-07
3280.0,9.183e-08
3285.0,4.086e-07
3290.0,3.048e-07
3295.0,3.666e-08
3300.0,5.459e-08
3305.0,1.262e-07
3310.0,1.197e-07
3315.0,1.709e-10
3320.0,1.077e-09
3325.0,1.003e-07
3330.0,1.541e-07
3335.0,3.013e-07
3340.0,1.093e-07
3345.0,1.058e-07
3350.0,2.68e-07
3355.0,1.069e-07
3360.0,1.651e-07
3365.0,2.342e-07
3370.0,1.119e-07
3375.0,2.753e-07
3380.0,1.476e-07
3385.0,2.359e-07
3390.0,3.11e-07
3395.0,3.013e-07
3400.0,4.093e-07
3405.0,1.225e-07
3410.0,2.172e-07
3415.0,2.105e-07
3420.0,4.258e-07
3425.0,3.025e-07
3430.0,2.543e-07
3435.0,3.652e-07
3440.0,2.315e-07
3445.0,3.478e-07
3450.0,3.394e-07
3455.0,2.406e-07
3460.0,3.875e-07
3465.0,2.848e-07
3470.0,3.748e-07
3475.0,3.241e-07
3480.0,3.321e-07
3485.0,3.62e-07
3490.0,3.007e-07
3495.0,3.639e-07
3500.0,3.512e-07
3505.0,3.46e-07
3510.0,3.505e-07
3515.0,3.334e-07
3520.0,3.561e-07
3525.0,3.303e-07
3530.0,3.197e-07
3535.0,2.596e-07
3540.0,2.451e-07
3545.0,2.601e-07
3550.0,2.947e-07
3555.0,2.457e-07
3560.0,3.018e-07
3565.0,3.009e-07
3570.0,2.242e-07
3575.0,2.314e-07
3580.0,2.809e-07
3585.0,2.437e-07
3590.0,2.548e-07
3595.0,2.608e-07
3600.0,2.793e-07
3605.0,2.783e-07
3610.0,2.508e-07
3615.0,2.514e-07
3620.0,3.161e-07
3625.0,2.679e-07
3630.0,2.604e-07
3635.0,2.684e-07
3640.0,3.045e-07
3645.0,2.723e-07
3650.0,2.579e-07
3655.0,2.831e-07
3660.0,2.802e-07
3665.0,2.566e-07
3670.0,1.903e-07
3675.0,1.057e-07
3680.0,1.975e-07
3685.0,2.287e-07
3690.0,2.362e-07
3695.0,2.475e-07
3700.0,2.695e-07
3705.0,2.641e-07
3710.0,2.232e-07
3715.0,2.189e-07
3720.0,2.52e-07
3725.0,2.592e-07
3730.0,2.184e-07
3735.0,1.964e-07
3740.0,2.023e-07
3745.0,2.415e-07
3750.0,2.153e-07
3755.0,2.067e-07
3760.0,2.021e-07
3765.0,1.934e-07
3770.0,2.09e-07
3775.0,2.055e-07
3780.0,2.191e-07
3785.0,1.967e-07
3790.0,1.696e-07
3795.0,1.978e-07
3800.0,2.255e-07
3805.0,2.088e-07
3810.0,1.801e-07
3815.0,1.665e-07
3820.0,2.163e-07
3825.0,2.102e-07
3830.0,2.132e-07
3835.0,1.614e-07
3840.0,1.953e-07
3845.0,1.887e-07
3850.0,1.895e-07
3855.0,1.794e-07
3860.0,1.645e-07
3865.0,1.654e-07
3870.0,1.463e-07
3875.0,1.301e-07
3880.0,1.243e-07
3885.0,1.292e-07
3890.0,1.309e-07
3895.0,1.46e-07
3900.0,1.568e-07
3905.0,1.557e-07
3910.0,1.356e-07
3915.0,1.31e-07
3920.0,1.305e-07
3925.0,1.273e-07
3930.0,1.321e-07
3935.0,1.385e-07
3940.0,1.402e-07
3945.0,1.426e-07
3950.0,1.449e-07
3955.0,1.463e-07
3960.0,1.474e-07
3965.0,1.482e-07
3970.0,1.458e-07
3975.0,1.407e-07
3980.0,1.379e-07
3985.0,1.38e-07
3990.0,1.353e-07
3995.0,1.314e-07
4000.0,1.251e-07
