interpolation:linear
wavelength,value
280.0,1.68e-23
280.5,5.867e-22
281.0,3.204e-21
281.5,1.079e-19
282.0,8.886e-19
282.5,3.446e-18
283.0,1.453e-17
283.5,2.241e-17
284.0,3.382e-16
284.5,9.759e-16
285.0,4.7e-16
285.5,2.6e-15
286.0,1.074e-14
286.5,5.08e-14
287.0,1.498e-13
287.5,5.973e-13
288.0,9.635e-12
288.5,1.845e-11
289.0,3.98e-11
289.5,1.059e-10
290.0,2.742e-10
290.5,5.34e-10
291.0,1.1e-09
291.5,3.047e-09
292.0,5.89e-09
292.5,7.794e-09
293.0,1.571e-08
293.5,3.575e-08
294.0,5.321e-08
294.5,1.066e-08
295.0,1.783e-08
295.5,2.821e-08
296.0,4.847e-08
296.5,6.063e-08
297.0,7.498e-08
297.5,1.762e-07
298.0,2.484e-07
298.5,2.294e-07
299.0,4.656e-07
299.5,6.689e-07
300.0,6.789e-07
300.5,9.061e-07
301.0,1.438e-06
301.5,2.037e-06
302.0,1.641e-06
302.5,1.806e-06
303.0,3.32e-06
303.5,4.225e-06
304.0,3.967e-06
304.5,5.984e-06
305.0,9.461e-06
305.5,1.129e-05
306.0,1.114e-05
306.5,1.437e-05
307.0,2.334e-05
307.5,3.444e-05
308.0,3.706e-05
308.5,4.639e-05
309.0,4.342e-05
309.5,4.665e-05
310.0,4.656e-05
310.5,7.551e-05
311.0,9.549e-05
311.5,9.268e-05
312.0,9.677e-05
312.5,0.0001229
313.0,0.0001369
313.5,0.0001297
314.0,0.0001731
314.5,0.0001832
315.0,0.0002491
315.5,0.0001902
316.0,0.0001938
316.5,0.0003198
317.0,0.0003961
317.5,0.0003961
318.0,0.0003404
318.5,0.0005126
319.0,0.000673
319.5,0.0004669
320.0,0.0005509
320.5,0.0008447
321.0,0.0009119
321.5,0.0008918
322.0,0.0007728
322.5,0.0006793
323.0,0.0007737
323.5,0.001943
324.0,0.002361
324.5,0.002162
325.0,0.0009976
325.5,0.001437
326.0,0.003354
326.5,0.003818
327.0,0.00363
327.5,0.0033
328.0,0.002464
328.5,0.003201
329.0,0.00459
329.5,0.005542
330.0,0.005318
330.5,0.003679
331.0,0.003591
331.5,0.004006
332.0,0.005125
332.5,0.005461
333.0,0.005217
333.5,0.004174
334.0,0.004187
334.5,0.00556
335.0,0.005653
335.5,0.007056
336.0,0.004881
336.5,0.005147
337.0,0.003985
337.5,0.00485
338.0,0.005303
338.5,0.006637
339.0,0.006623
339.5,0.006338
340.0,0.006888
340.5,0.006279
341.0,0.006577
341.5,0.006128
342.0,0.007354
342.5,0.00691
343.0,0.007532
343.5,0.007049
344.0,0.004845
344.5,0.005203
345.0,0.007007
345.5,0.007206
346.0,0.006155
346.5,0.006992
347.0,0.00745
347.5,0.006009
348.0,0.006916
348.5,0.006953
349.0,0.006467
349.5,0.006397
350.0,0.007922
350.5,0.008356
351.0,0.007431
351.5,0.007138
352.0,0.007726
352.5,0.006067
353.0,0.007671
353.5,0.008225
354.0,0.008556
354.5,0.008679
355.0,0.008636
355.5,0.007814
356.0,0.008188
356.5,0.006994
357.0,0.005778
357.5,0.00708
358.0,0.005617
358.5,0.004803
359.0,0.006714
359.5,0.008529
360.0,0.009053
360.5,0.007248
361.0,0.006617
361.5,0.007628
362.0,0.006602
362.5,0.009142
363.0,0.008214
363.5,0.007567
364.0,0.009258
364.5,0.007913
365.0,0.008059
365.5,0.01012
366.0,0.01073
366.5,0.01008
367.0,0.009825
367.5,0.0102
368.0,0.008926
368.5,0.009005
369.0,0.009729
369.5,0.01038
370.0,0.01106
370.5,0.008591
371.0,0.009183
371.5,0.01149
372.0,0.00763
372.5,0.009151
373.0,0.00931
373.5,0.006058
374.0,0.008805
374.5,0.007294
375.0,0.007093
375.5,0.01059
376.0,0.008783
376.5,0.009104
377.0,0.009642
377.5,0.01128
378.0,0.01223
378.5,0.01157
379.0,0.009548
379.5,0.008723
380.0,0.009072
380.5,0.01099
381.0,0.01102
381.5,0.008734
382.0,0.007759
382.5,0.006616
383.0,0.006126
383.5,0.005903
384.0,0.006513
384.5,0.009582
385.0,0.009505
385.5,0.008854
386.0,0.007585
386.5,0.009965
387.0,0.008283
387.5,0.009305
388.0,0.008593
388.5,0.008496
389.0,0.009173
389.5,0.01111
390.0,0.01116
390.5,0.01027
391.0,0.01209
391.5,0.01234
392.0,0.01039
392.5,0.009306
393.0,0.005179
393.5,0.003766
394.0,0.007664
394.5,0.009747
395.0,0.0119
395.5,0.01209
396.0,0.01048
396.5,0.006129
397.0,0.004601
397.5,0.009361
398.0,0.01311
398.5,0.01356
399.0,0.01468
399.5,0.01464
400.0,0.0152
401.0,0.01501
402.0,0.01584
403.0,0.01506
404.0,0.01483
405.0,0.01483
406.0,0.01459
407.0,0.01435
408.0,0.01491
409.0,0.01595
410.0,0.01394
411.0,0.0151
412.0,0.01623
413.0,0.01584
414.0,0.01603
415.0,0.01607
416.0,0.01634
417.0,0.01594
418.0,0.01564
419.0,0.01585
420.0,0.01579
421.0,0.01651
422.0,0.01568
423.0,0.0153
424.0,0.01616
425.0,0.01612
426.0,0.0157
427.0,0.01542
428.0,0.01503
429.0,0.01424
430.0,0.01247
431.0,0.01235
432.0,0.01592
433.0,0.01599
434.0,0.01485
435.0,0.01552
436.0,0.01748
437.0,0.01723
438.0,0.01567
439.0,0.01616
440.0,0.01664
441.0,0.0172
442.0,0.01842
443.0,0.01793
444.0,0.01833
445.0,0.01796
446.0,0.01717
447.0,0.01857
448.0,0.01883
449.0,0.01886
450.0,0.01935
451.0,0.02005
452.0,0.01932
453.0,0.01817
454.0,0.01897
455.0,0.01904
456.0,0.01945
457.0,0.0197
458.0,0.01895
459.0,0.01875
460.0,0.01872
461.0,0.01909
462.0,0.01923
463.0,0.01913
464.0,0.01887
465.0,0.01868
466.0,0.01887
467.0,0.0185
468.0,0.01866
469.0,0.01869
470.0,0.01806
471.0,0.01802
472.0,0.01899
473.0,0.01874
474.0,0.01873
475.0,0.01883
476.0,0.01816
477.0,0.0181
478.0,0.01848
479.0,0.01822
480.0,0.01812
481.0,0.01835
482.0,0.01839
483.0,0.01816
484.0,0.01783
485.0,0.01704
486.0,0.01494
487.0,0.01568
488.0,0.01718
489.0,0.01718
490.0,0.018
491.0,0.01763
492.0,0.01661
493.0,0.01713
494.0,0.01729
495.0,0.0174
496.0,0.01745
497.0,0.01762
498.0,0.01668
499.0,0.01675
500.0,0.01612
501.0,0.01568
502.0,0.01531
503.0,0.01579
504.0,0.01528
505.0,0.01576
506.0,0.01624
507.0,0.01546
508.0,0.015
509.0,0.01546
510.0,0.0154
511.0,0.0158
512.0,0.01594
513.0,0.01504
514.0,0.01487
515.0,0.01466
516.0,0.01457
517.0,0.0129
518.0,0.01352
519.0,0.01413
520.0,0.01458
521.0,0.01464
522.0,0.01456
523.0,0.01423
524.0,0.01462
525.0,0.01467
526.0,0.0139
527.0,0.01298
528.0,0.0136
529.0,0.01423
530.0,0.01393
531.0,0.01404
532.0,0.01349
533.0,0.01304
534.0,0.0134
535.0,0.01368
536.0,0.01379
537.0,0.01323
538.0,0.01343
539.0,0.01327
540.0,0.01267
541.0,0.01269
542.0,0.01301
543.0,0.01279
544.0,0.01295
545.0,0.01285
546.0,0.01285
547.0,0.0128
548.0,0.0126
549.0,0.0126
550.0,0.0127
551.0,0.0125
552.0,0.01254
553.0,0.01226
554.0,0.0125
555.0,0.01246
556.0,0.01223
557.0,0.01177
558.0,0.01159
559.0,0.01128
560.0,0.01133
561.0,0.01138
562.0,0.01121
563.0,0.01142
564.0,0.01104
565.0,0.01088
566.0,0.01066
567.0,0.01079
568.0,0.01063
569.0,0.01032
570.0,0.01026
571.0,0.01014
572.0,0.01033
573.0,0.01039
574.0,0.01033
575.0,0.01012
576.0,0.01002
577.0,0.01013
578.0,0.009983
579.0,0.01003
580.0,0.01024
581.0,0.01031
582.0,0.01051
583.0,0.01055
584.0,0.01064
585.0,0.01037
586.0,0.01014
587.0,0.01034
588.0,0.01006
589.0,0.008868
590.0,0.009238
591.0,0.009747
592.0,0.009562
593.0,0.009649
594.0,0.009506
595.0,0.009198
596.0,0.00951
597.0,0.009324
598.0,0.009232
599.0,0.009179
600.0,0.009137
601.0,0.009024
602.0,0.008935
603.0,0.009068
604.0,0.009213
605.0,0.00917
606.0,0.009145
607.0,0.009258
608.0,0.009182
609.0,0.009227
610.0,0.009192
611.0,0.009272
612.0,0.009275
613.0,0.009187
614.0,0.009088
615.0,0.009309
616.0,0.009023
617.0,0.009022
618.0,0.009384
619.0,0.009301
620.0,0.009365
621.0,0.009379
622.0,0.009272
623.0,0.009132
624.0,0.008972
625.0,0.008953
626.0,0.009086
627.0,0.009184
628.0,0.008512
629.0,0.008945
630.0,0.008742
631.0,0.008969
632.0,0.008877
633.0,0.009165
634.0,0.009097
635.0,0.009256
636.0,0.009151
637.0,0.009319
638.0,0.009429
639.0,0.009341
640.0,0.009271
641.0,0.00928
642.0,0.009255
643.0,0.009393
644.0,0.009374
645.0,0.009385
646.0,0.009164
647.0,0.009024
648.0,0.009039
649.0,0.008857
650.0,0.008935
651.0,0.00933
652.0,0.008907
653.0,0.00921
654.0,0.009114
655.0,0.008745
656.0,0.007762
657.0,0.00798
658.0,0.008949
659.0,0.009026
660.0,0.009062
661.0,0.009133
662.0,0.009159
663.0,0.008977
664.0,0.009083
665.0,0.009091
666.0,0.009103
667.0,0.009103
668.0,0.009114
669.0,0.009256
670.0,0.009213
671.0,0.009214
672.0,0.009137
673.0,0.009278
674.0,0.009241
675.0,0.009156
676.0,0.009215
677.0,0.009121
678.0,0.009143
679.0,0.008991
680.0,0.009053
681.0,0.00898
682.0,0.008955
683.0,0.008921
684.0,0.00886
685.0,0.008927
686.0,0.008856
687.0,0.005749
688.0,0.006697
689.0,0.006715
690.0,0.007034
691.0,0.007408
692.0,0.007703
693.0,0.007645
694.0,0.007599
695.0,0.007949
696.0,0.007955
697.0,0.008523
698.0,0.008356
699.0,0.008092
700.0,0.007984
701.0,0.007869
702.0,0.007918
703.0,0.007944
704.0,0.00821
705.0,0.008199
706.0,0.008186
707.0,0.008178
708.0,0.008189
709.0,0.008203
710.0,0.008153
711.0,0.008137
712.0,0.008113
713.0,0.007984
714.0,0.008007
715.0,0.00771
716.0,0.007676
717.0,0.006532
718.0,0.006001
719.0,0.005497
720.0,0.005733
721.0,0.006351
722.0,0.007282
723.0,0.006759
724.0,0.006062
725.0,0.005943
726.0,0.006188
727.0,0.006312
728.0,0.005875
729.0,0.006107
730.0,0.00643
731.0,0.006135
732.0,0.006582
733.0,0.006984
734.0,0.007156
735.0,0.006981
736.0,0.006929
737.0,0.006949
738.0,0.007095
739.0,0.006933
740.0,0.007111
741.0,0.007027
742.0,0.007024
743.0,0.007177
744.0,0.007136
745.0,0.007123
746.0,0.007134
747.0,0.007127
748.0,0.007089
749.0,0.006988
750.0,0.006969
751.0,0.006885
752.0,0.006904
753.0,0.006926
754.0,0.006927
755.0,0.00687
756.0,0.006851
757.0,0.00684
758.0,0.006732
759.0,0.006514
760.0,0.001103
761.0,0.0005885
762.0,0.003233
763.0,0.001645
764.0,0.002434
765.0,0.003199
766.0,0.003884
767.0,0.004866
768.0,0.005653
769.0,0.005794
770.0,0.006045
771.0,0.006116
772.0,0.006118
773.0,0.006135
774.0,0.006078
775.0,0.006003
776.0,0.006047
777.0,0.005938
778.0,0.005872
779.0,0.005852
780.0,0.0058
781.0,0.005788
782.0,0.005813
783.0,0.005702
784.0,0.005719
785.0,0.005663
786.0,0.005707
787.0,0.00556
788.0,0.005472
789.0,0.005447
790.0,0.005255
791.0,0.005312
792.0,0.005265
793.0,0.005161
794.0,0.005277
795.0,0.005337
796.0,0.005099
797.0,0.005103
798.0,0.005275
799.0,0.00521
800.0,0.005076
801.0,0.005032
802.0,0.005002
803.0,0.004928
804.0,0.004929
805.0,0.004909
806.0,0.005057
807.0,0.004963
808.0,0.00494
809.0,0.004797
810.0,0.004732
811.0,0.004672
812.0,0.004501
813.0,0.004378
814.0,0.0038
815.0,0.003759
816.0,0.003498
817.0,0.003545
818.0,0.003403
819.0,0.00379
820.0,0.003584
821.0,0.0042
822.0,0.004051
823.0,0.002702
824.0,0.003904
825.0,0.004122
826.0,0.003902
827.0,0.00414
828.0,0.003447
829.0,0.003871
830.0,0.003807
831.0,0.003802
832.0,0.003668
833.0,0.003896
834.0,0.003739
835.0,0.004139
836.0,0.003918
837.0,0.004116
838.0,0.003954
839.0,0.004036
840.0,0.004117
841.0,0.004029
842.0,0.004034
843.0,0.00404
844.0,0.003956
845.0,0.004081
846.0,0.004054
847.0,0.003964
848.0,0.003911
849.0,0.003781
850.0,0.003602
851.0,0.00378
852.0,0.003743
853.0,0.003592
854.0,0.003085
855.0,0.003384
856.0,0.003685
857.0,0.003762
858.0,0.003721
859.0,0.003719
860.0,0.003718
861.0,0.003687
862.0,0.003738
863.0,0.003816
864.0,0.003616
865.0,0.003575
866.0,0.003205
867.0,0.003334
868.0,0.003617
869.0,0.003531
870.0,0.00362
871.0,0.003558
872.0,0.003534
873.0,0.003514
874.0,0.00346
875.0,0.003376
876.0,0.003398
877.0,0.003419
878.0,0.003442
879.0,0.003375
880.0,0.003289
881.0,0.003223
882.0,0.003275
883.0,0.003276
884.0,0.003246
885.0,0.003254
886.0,0.003074
887.0,0.003109
888.0,0.003133
889.0,0.00317
890.0,0.003115
891.0,0.00311
892.0,0.002981
893.0,0.002868
894.0,0.002724
895.0,0.002537
896.0,0.002374
897.0,0.002023
898.0,0.002201
899.0,0.00165
900.0,0.002234
901.0,0.00172
902.0,0.002011
903.0,0.002032
904.0,0.002595
905.0,0.002488
906.0,0.002317
907.0,0.001852
908.0,0.001893
909.0,0.00204
910.0,0.001782
911.0,0.001907
912.0,0.002004
913.0,0.001791
914.0,0.001785
915.0,0.001908
916.0,0.001618
917.0,0.002048
918.0,0.001642
919.0,0.002074
920.0,0.002112
921.0,0.002183
922.0,0.001929
923.0,0.002095
924.0,0.001957
925.0,0.001904
926.0,0.001918
927.0,0.002145
928.0,0.001544
929.0,0.001401
930.0,0.001094
931.0,0.001032
932.0,0.0007389
933.0,0.0005974
934.0,0.0003243
935.0,0.0006074
936.0,0.0003764
937.0,0.0003796
938.0,0.0004653
939.0,0.000968
940.0,0.001161
941.0,0.0008701
942.0,0.001004
943.0,0.0006558
944.0,0.0006893
945.0,0.0008826
946.0,0.0004455
947.0,0.0008804
948.0,0.0006446
949.0,0.001175
950.0,0.0003217
951.0,0.00115
952.0,0.0006125
953.0,0.0007905
954.0,0.0009685
955.0,0.000795
956.0,0.0007702
957.0,0.0006024
958.0,0.001088
959.0,0.0008575
960.0,0.0009584
961.0,0.001075
962.0,0.001013
963.0,0.001169
964.0,0.001065
965.0,0.001154
966.0,0.001153
967.0,0.001145
968.0,0.001575
969.0,0.001616
970.0,0.001488
971.0,0.001706
972.0,0.001627
973.0,0.001386
974.0,0.00131
975.0,0.001364
976.0,0.001284
977.0,0.001481
978.0,0.001383
979.0,0.001452
980.0,0.00136
981.0,0.00164
982.0,0.001555
983.0,0.001482
984.0,0.001692
985.0,0.001528
986.0,0.001732
987.0,0.001667
988.0,0.001664
989.0,0.001715
990.0,0.001631
991.0,0.001699
992.0,0.001706
993.0,0.001643
994.0,0.001698
995.0,0.001695
996.0,0.001679
997.0,0.001678
998.0,0.001663
999.0,0.001653
1000.0,0.001633
1001.0,0.001651
1002.0,0.001578
1003.0,0.00161
1004.0,0.001557
1005.0,0.001503
1006.0,0.001555
1007.0,0.001582
1008.0,0.001565
1009.0,0.001547
1010.0,0.001535
1011.0,0.001551
1012.0,0.001531
1013.0,0.001539
1014.0,0.001522
1015.0,0.001507
1016.0,0.001494
1017.0,0.001491
1018.0,0.001483
1019.0,0.001437
1020.0,0.001464
1021.0,0.001458
1022.0,0.001438
1023.0,0.001449
1024.0,0.001417
1025.0,0.001439
1026.0,0.001425
1027.0,0.001419
1028.0,0.001409
1029.0,0.001386
1030.0,0.001393
1031.0,0.001383
1032.0,0.001374
1033.0,0.001349
1034.0,0.001344
1035.0,0.001343
1036.0,0.001344
1037.0,0.001318
1038.0,0.001319
1039.0,0.001312
1040.0,0.001302
1041.0,0.001302
1042.0,0.001288
1043.0,0.001279
1044.0,0.001278
1045.0,0.001255
1046.0,0.001236
1047.0,0.001242
1048.0,0.001244
1049.0,0.001234
1050.0,0.001224
1051.0,0.001217
1052.0,0.001207
1053.0,0.001192
1054.0,0.001189
1055.0,0.001185
1056.0,0.001175
1057.0,0.001166
1058.0,0.001132
1059.0,0.001128
1060.0,0.001122
1061.0,0.001116
1062.0,0.001117
1063.0,0.001101
1064.0,0.001111
1065.0,0.001096
1066.0,0.001073
1067.0,0.001082
1068.0,0.001053
1069.0,0.001019
1070.0,0.00105
1071.0,0.001066
1072.0,0.001048
1073.0,0.001029
1074.0,0.001058
1075.0,0.0009896
1076.0,0.00105
1077.0,0.001021
1078.0,0.0009936
1079.0,0.001026
1080.0,0.0009937
1081.0,0.0009529
1082.0,0.0009763
1083.0,0.000978
1084.0,0.0009402
1085.0,0.000981
1086.0,0.0008809
1087.0,0.0009112
1088.0,0.0009591
1089.0,0.0009141
1090.0,0.0008881
1091.0,0.0009414
1092.0,0.000938
1093.0,0.0007728
1094.0,0.0008485
1095.0,0.000798
1096.0,0.0007579
1097.0,0.000902
1098.0,0.0007409
1099.0,0.0007691
1100.0,0.0007075
1101.0,0.0007167
1102.0,0.0006792
1103.0,0.0006671
1104.0,0.0006678
1105.0,0.0007321
1106.0,0.000549
1107.0,0.0006899
1108.0,0.0005755
1109.0,0.0005753
1110.0,0.000672
1111.0,0.000449
1112.0,0.0005661
1113.0,0.0003543
1114.0,0.0003949
1115.0,0.0003261
1116.0,0.0002579
1117.0,9.28e-05
1118.0,0.0002793
1119.0,0.0001368
1120.0,0.0001715
1121.0,0.0002277
1122.0,9.431e-05
1123.0,0.0001535
1124.0,0.0001291
1125.0,0.0001682
1126.0,5.717e-05
1127.0,0.0001885
1128.0,0.0001111
1129.0,0.0001177
1130.0,7.67e-05
1131.0,0.0003558
1132.0,0.0002776
1133.0,0.0001737
1134.0,4.329e-05
1135.0,1.622e-05
1136.0,0.0001429
1137.0,0.000342
1138.0,0.0002398
1139.0,0.0003596
1140.0,0.0002982
1141.0,0.0002257
1142.0,0.0002594
1143.0,0.0003683
1144.0,0.0001268
1145.0,0.000161
1146.0,0.0001731
1147.0,5.952e-05
1148.0,0.0003134
1149.0,0.0002486
1150.0,0.0001338
1151.0,0.0002279
1152.0,0.0002806
1153.0,0.0002734
1154.0,0.0001513
1155.0,0.0003557
1156.0,0.0003187
1157.0,0.0003576
1158.0,0.0003524
1159.0,0.0003797
1160.0,0.0003229
1161.0,0.0003995
1162.0,0.0004009
1163.0,0.0005449
1164.0,0.0004645
1165.0,0.0004333
1166.0,0.0004324
1167.0,0.0004698
1168.0,0.0004733
1169.0,0.0004846
1170.0,0.0005288
1171.0,0.0005113
1172.0,0.0005258
1173.0,0.0005207
1174.0,0.0003659
1175.0,0.000509
1176.0,0.0005683
1177.0,0.0005362
1178.0,0.0003952
1179.0,0.0005655
1180.0,0.0004986
1181.0,0.0005078
1182.0,0.0003437
1183.0,0.0004983
1184.0,0.0004666
1185.0,0.0004452
1186.0,0.0005321
1187.0,0.0005002
1188.0,0.0003428
1189.0,0.0004641
1190.0,0.0005151
1191.0,0.0004812
1192.0,0.0005199
1193.0,0.0004973
1194.0,0.0005091
1195.0,0.0004752
1196.0,0.0004538
1197.0,0.0005051
1198.0,0.0004606
1199.0,0.0003825
1200.0,0.0004761
1201.0,0.0004538
1202.0,0.0004551
1203.0,0.0004453
1204.0,0.0003914
1205.0,0.0004653
1206.0,0.0005159
1207.0,0.0004447
1208.0,0.0004389
1209.0,0.0004468
1210.0,0.0004686
1211.0,0.0004418
1212.0,0.000428
1213.0,0.0004841
1214.0,0.0004373
1215.0,0.0004266
1216.0,0.0004803
1217.0,0.0004639
1218.0,0.0004733
1219.0,0.0004647
1220.0,0.0004706
1221.0,0.0004763
1222.0,0.0004607
1223.0,0.0004542
1224.0,0.0004478
1225.0,0.0004649
1226.0,0.00047
1227.0,0.000425
1228.0,0.0004722
1229.0,0.000465
1230.0,0.0004547
1231.0,0.000472
1232.0,0.0004677
1233.0,0.0004413
1234.0,0.0004695
1235.0,0.0004631
1236.0,0.0004666
1237.0,0.0004548
1238.0,0.0004621
1239.0,0.0004548
1240.0,0.0004557
1241.0,0.0004499
1242.0,0.0004493
1243.0,0.0004446
1244.0,0.0004452
1245.0,0.0004464
1246.0,0.0004426
1247.0,0.0004385
1248.0,0.0004357
1249.0,0.0004368
1250.0,0.0004318
1251.0,0.0004231
1252.0,0.0004243
1253.0,0.0004155
1254.0,0.0004079
1255.0,0.0004191
1256.0,0.0003993
1257.0,0.0003946
1258.0,0.0004055
1259.0,0.0003816
1260.0,0.0003832
1261.0,0.0003548
1262.0,0.0003413
1263.0,0.0003409
1264.0,0.0003117
1265.0,0.0003366
1266.0,0.0003215
1267.0,0.0003271
1268.0,0.000308
1269.0,0.0001908
1270.0,0.0003225
1271.0,0.0003437
1272.0,0.0003439
1273.0,0.0003388
1274.0,0.0003398
1275.0,0.0003443
1276.0,0.0003479
1277.0,0.0003511
1278.0,0.0003595
1279.0,0.0003556
1280.0,0.0003506
1281.0,0.0003356
1282.0,0.0003248
1283.0,0.0003481
1284.0,0.0003557
1285.0,0.0003574
1286.0,0.0003623
1287.0,0.000354
1288.0,0.0003535
1289.0,0.000335
1290.0,0.0003483
1291.0,0.0003533
1292.0,0.000322
1293.0,0.0003427
1294.0,0.0003381
1295.0,0.0003309
1296.0,0.0003126
1297.0,0.0002936
1298.0,0.0003187
1299.0,0.0003359
1300.0,0.0002751
1301.0,0.0002822
1302.0,0.0003139
1303.0,0.0002715
1304.0,0.0002263
1305.0,0.0003034
1306.0,0.0003004
1307.0,0.0002301
1308.0,0.0002661
1309.0,0.0002945
1310.0,0.0002239
1311.0,0.0002535
1312.0,0.0002445
1313.0,0.0002375
1314.0,0.0002103
1315.0,0.000207
1316.0,0.0002446
1317.0,0.0002317
1318.0,0.0002518
1319.0,0.0001928
1320.0,0.0001856
1321.0,0.0002168
1322.0,0.0002171
1323.0,0.0001623
1324.0,0.0001864
1325.0,0.0002323
1326.0,0.0001982
1327.0,0.0001881
1328.0,0.0001611
1329.0,0.0001205
1330.0,0.0001565
1331.0,9.413e-05
1332.0,9.692e-05
1333.0,0.0001345
1334.0,0.0001137
1335.0,0.0001559
1336.0,0.0001229
1337.0,0.0001083
1338.0,0.0001169
1339.0,0.000116
1340.0,0.0001126
1341.0,0.0001095
1342.0,0.0001147
1343.0,7.731e-05
1344.0,4.617e-05
1345.0,6.641e-05
1346.0,3.276e-05
1347.0,3.319e-05
1348.0,2.14e-06
1349.0,7.676e-06
1350.0,7.958e-06
1351.0,1.924e-06
1352.0,5.175e-07
1353.0,2.634e-08
1354.0,9.054e-08
1355.0,7.29e-10
1356.0,1.276e-08
1357.0,1.939e-08
1358.0,8.561e-10
1359.0,1.079e-10
1360.0,3.898e-10
1361.0,4.361e-13
1362.0,1.193e-15
1363.0,5.242e-10
1364.0,2.164e-10
1365.0,4.166e-16
1366.0,2.272e-09
1367.0,9.276e-10
1368.0,3.217e-18
1369.0,7.978e-11
1370.0,3.929e-11
1371.0,2.228e-12
1372.0,5.033e-10
1373.0,1.014e-08
1374.0,4.703e-08
1375.0,8.53e-08
1376.0,7.651e-08
1377.0,3.495e-08
1378.0,3.417e-07
1379.0,1.46e-08
1380.0,2.099e-08
1381.0,5.468e-10
1382.0,4.414e-10
1383.0,6.599e-12
1384.0,8.653e-11
1385.0,4.138e-10
1386.0,3.892e-10
1387.0,4.708e-08
1388.0,9.261e-10
1389.0,1.59e-07
1390.0,1.365e-07
1391.0,9.075e-08
1392.0,5.883e-09
1393.0,3.117e-08
1394.0,1.606e-08
1395.0,1.177e-10
1396.0,5.69e-13
1397.0,1.227e-08
1398.0,3.629e-07
1399.0,2.296e-07
1400.0,2.434e-13
1401.0,1.01e-12
1402.0,6.361e-07
1403.0,7.968e-07
1404.0,2.421e-07
1405.0,5.578e-11
1406.0,6.258e-07
1407.0,5.515e-08
1408.0,5.092e-07
1409.0,1.697e-07
1410.0,1.359e-07
1411.0,6.854e-07
1412.0,9.247e-07
1413.0,9.625e-06
1414.0,1.061e-07
1415.0,5.068e-08
1416.0,1.591e-05
1417.0,4.698e-06
1418.0,5.32e-06
1419.0,8.188e-07
1420.0,3.233e-06
1421.0,3.488e-06
1422.0,2.045e-05
1423.0,3.924e-06
1424.0,7.365e-06
1425.0,1.076e-05
1426.0,1.231e-05
1427.0,2.29e-05
1428.0,1.603e-06
1429.0,1.687e-05
1430.0,2.911e-05
1431.0,3.2e-05
1432.0,1.246e-06
1433.0,2.008e-05
1434.0,1.01e-05
1435.0,9.789e-06
1436.0,1.928e-05
1437.0,1.474e-05
1438.0,6.085e-06
1439.0,2.621e-05
1440.0,1.957e-05
1441.0,1.463e-05
1442.0,1.621e-05
1443.0,2.068e-05
1444.0,2.879e-05
1445.0,2.212e-05
1446.0,9.813e-06
1447.0,1.547e-05
1448.0,5.479e-05
1449.0,4.708e-05
1450.0,1.14e-05
1451.0,4.488e-06
1452.0,2.772e-05
1453.0,3.653e-05
1454.0,6.424e-05
1455.0,2.958e-05
1456.0,3.943e-05
1457.0,5.374e-05
1458.0,6.419e-05
1459.0,7.557e-05
1460.0,3.871e-05
1461.0,3.985e-05
1462.0,5.918e-05
1463.0,1.853e-05
1464.0,7.063e-05
1465.0,4.226e-05
1466.0,2.799e-05
1467.0,1.432e-05
1468.0,3.313e-05
1469.0,4.11e-05
1470.0,1.975e-05
1471.0,7.003e-06
1472.0,1.877e-05
1473.0,2.918e-05
1474.0,4.33e-05
1475.0,8.316e-05
1476.0,2.902e-05
1477.0,2.899e-05
1478.0,2.708e-05
1479.0,5.278e-05
1480.0,2.483e-05
1481.0,4.997e-05
1482.0,2.428e-05
1483.0,6.499e-05
1484.0,6.082e-05
1485.0,5.369e-05
1486.0,5.25e-05
1487.0,2.34e-05
1488.0,4.182e-05
1489.0,8.346e-05
1490.0,7.705e-05
1491.0,8.749e-05
1492.0,7.117e-05
1493.0,7.864e-05
1494.0,8.913e-05
1495.0,7.865e-05
1496.0,7.328e-05
1497.0,0.0001021
1498.0,8.238e-05
1499.0,9.613e-05
1500.0,0.0001124
1501.0,0.0001175
1502.0,9.887e-05
1503.0,8.263e-05
1504.0,6.547e-05
1505.0,7.925e-05
1506.0,0.0001168
1507.0,0.000112
1508.0,0.0001066
1509.0,7.987e-05
1510.0,0.0001208
1511.0,0.0001153
1512.0,0.0001154
1513.0,0.0001036
1514.0,9.648e-05
1515.0,0.0001181
1516.0,0.0001123
1517.0,0.0001082
1518.0,0.0001085
1519.0,0.0001048
1520.0,0.0001134
1521.0,0.0001241
1522.0,0.0001154
1523.0,0.0001255
1524.0,0.0001197
1525.0,0.0001126
1526.0,0.0001142
1527.0,0.0001139
1528.0,0.0001226
1529.0,0.0001155
1530.0,0.000112
1531.0,0.0001157
1532.0,0.0001221
1533.0,0.0001223
1534.0,0.0001201
1535.0,0.0001185
1536.0,0.0001206
1537.0,0.0001179
1538.0,0.0001192
1539.0,0.0001167
1540.0,0.0001171
1541.0,0.0001174
1542.0,0.0001157
1543.0,0.0001179
1544.0,0.0001161
1545.0,0.0001184
1546.0,0.0001155
1547.0,0.0001141
1548.0,0.0001138
1549.0,0.0001149
1550.0,0.0001136
1551.0,0.0001139
1552.0,0.0001128
1553.0,0.0001121
1554.0,0.0001106
1555.0,0.0001109
1556.0,0.0001104
1557.0,0.0001115
1558.0,0.0001107
1559.0,0.0001097
1560.0,0.00011
1561.0,0.0001105
1562.0,0.0001087
1563.0,0.0001075
1564.0,0.0001076
1565.0,0.000108
1566.0,0.000106
1567.0,0.000106
1568.0,0.0001045
1569.0,0.0001052
1570.0,0.0001058
1571.0,0.0001062
1572.0,0.0001052
1573.0,0.0001041
1574.0,9.997e-05
1575.0,9.845e-05
1576.0,9.625e-05
1577.0,9.35e-05
1578.0,9.771e-05
1579.0,9.793e-05
1580.0,9.867e-05
1581.0,9.699e-05
1582.0,9.489e-05
1583.0,9.496e-05
1584.0,9.717e-05
1585.0,9.813e-05
1586.0,9.668e-05
1587.0,9.477e-05
1588.0,9.249e-05
1589.0,8.946e-05
1590.0,9.099e-05
1591.0,9.314e-05
1592.0,9.533e-05
1593.0,9.686e-05
1594.0,9.632e-05
1595.0,9.496e-05
1596.0,9.179e-05
1597.0,9.351e-05
1598.0,9.508e-05
1599.0,9.384e-05
1600.0,9.314e-05
1601.0,9.14e-05
1602.0,9.127e-05
1603.0,9.234e-05
1604.0,9.136e-05
1605.0,9.116e-05
1606.0,8.987e-05
1607.0,9.047e-05
1608.0,8.976e-05
1609.0,8.749e-05
1610.0,8.542e-05
1611.0,8.67e-05
1612.0,8.762e-05
1613.0,8.729e-05
1614.0,8.725e-05
1615.0,8.511e-05
1616.0,8.358e-05
1617.0,8.47e-05
1618.0,8.626e-05
1619.0,8.409e-05
1620.0,8.251e-05
1621.0,8.314e-05
1622.0,8.421e-05
1623.0,8.529e-05
1624.0,8.388e-05
1625.0,8.329e-05
1626.0,8.328e-05
1627.0,8.383e-05
1628.0,8.321e-05
1629.0,8.247e-05
1630.0,8.167e-05
1631.0,8.061e-05
1632.0,8.051e-05
1633.0,7.702e-05
1634.0,7.956e-05
1635.0,7.722e-05
1636.0,7.704e-05
1637.0,7.633e-05
1638.0,7.019e-05
1639.0,7.43e-05
1640.0,6.932e-05
1641.0,7.313e-05
1642.0,7.483e-05
1643.0,6.827e-05
1644.0,7.467e-05
1645.0,7.079e-05
1646.0,6.801e-05
1647.0,7.52e-05
1648.0,6.749e-05
1649.0,7.24e-05
1650.0,7.294e-05
1651.0,6.532e-05
1652.0,7.156e-05
1653.0,7.262e-05
1654.0,6.663e-05
1655.0,7.205e-05
1656.0,6.982e-05
1657.0,7.055e-05
1658.0,7.212e-05
1659.0,7.114e-05
1660.0,7.156e-05
1661.0,7.115e-05
1662.0,6.824e-05
1663.0,7.065e-05
1664.0,6.973e-05
1665.0,6.384e-05
1666.0,5.11e-05
1667.0,6.3e-05
1668.0,6.671e-05
1669.0,6.72e-05
1670.0,6.853e-05
1671.0,6.599e-05
1672.0,6.546e-05
1673.0,6.69e-05
1674.0,6.449e-05
1675.0,6.362e-05
1676.0,6.441e-05
1677.0,6.359e-05
1678.0,6.102e-05
1679.0,6.35e-05
1680.0,6.047e-05
1681.0,5.766e-05
1682.0,6.189e-05
1683.0,6.314e-05
1684.0,5.62e-05
1685.0,6.346e-05
1686.0,6.312e-05
1687.0,5.945e-05
1688.0,6.218e-05
1689.0,6.151e-05
1690.0,6.086e-05
1691.0,5.411e-05
1692.0,6.008e-05
1693.0,6.24e-05
1694.0,5.886e-05
1695.0,6.113e-05
1696.0,6.127e-05
1697.0,4.949e-05
1698.0,5.999e-05
1699.0,5.921e-05
1700.0,5.693e-05
1702.0,5.81e-05
1705.0,5.536e-05
1710.0,5.176e-05
1715.0,5.157e-05
1720.0,5.06e-05
1725.0,4.583e-05
1730.0,4.543e-05
1735.0,4.166e-05
1740.0,4.184e-05
1745.0,3.912e-05
1750.0,4.054e-05
1755.0,3.715e-05
1760.0,3.797e-05
1765.0,3.067e-05
1770.0,3.226e-05
1775.0,2.554e-05
1780.0,2.156e-05
1785.0,1.597e-05
1790.0,1.83e-05
1795.0,8.891e-06
1800.0,6.117e-06
1805.0,2.429e-06
1810.0,1.577e-06
1815.0,4.563e-07
1820.0,1.141e-07
1825.0,1.49e-07
1830.0,3.631e-10
1835.0,5.498e-10
1840.0,3.209e-12
1845.0,3.431e-10
1850.0,1.549e-10
1855.0,1.48e-11
1860.0,8.483e-10
1865.0,1.182e-09
1870.0,6.471e-15
1875.0,1.169e-14
1880.0,6.227e-09
1885.0,3.319e-09
1890.0,1.82e-08
1895.0,1.056e-08
1900.0,4.515e-11
1905.0,3.075e-11
1910.0,1.49e-09
1915.0,1.451e-09
1920.0,3.806e-08
1925.0,8.942e-08
1930.0,5.165e-08
1935.0,3.937e-07
1940.0,3.909e-07
1945.0,1.61e-06
1950.0,3.131e-06
1955.0,2.793e-06
1960.0,4.909e-06
1965.0,7.131e-06
1970.0,9.979e-06
1975.0,1.121e-05
1980.0,1.115e-05
1985.0,1.191e-05
1990.0,1.231e-05
1995.0,1.286e-05
2000.0,1.355e-05
2005.0,1.123e-05
2010.0,1.634e-05
2015.0,1.244e-05
2020.0,1.332e-05
2025.0,1.455e-05
2030.0,1.315e-05
2035.0,1.447e-05
2040.0,1.355e-05
2045.0,1.388e-05
2050.0,1.416e-05
2055.0,1.328e-05
2060.0,1.269e-05
2065.0,1.289e-05
2070.0,1.257e-05
2075.0,1.291e-05
2080.0,1.248e-05
2085.0,1.229e-05
2090.0,1.233e-05
2095.0,1.181e-05
2100.0,1.081e-05
2105.0,1.168e-05
2110.0,1.1e-05
2115.0,1.128e-05
2120.0,1.037e-05
2125.0,1.05e-05
2130.0,1.061e-05
2135.0,1.061e-05
2140.0,1.06e-05
2145.0,1.04e-05
2150.0,9.485e-06
2155.0,9.387e-06
2160.0,9.237e-06
2165.0,8.323e-06
2170.0,8.856e-06
2175.0,8.483e-06
2180.0,8.693e-06
2185.0,7.638e-06
2190.0,8.238e-06
2195.0,8.067e-06
2200.0,6.878e-06
2205.0,7.279e-06
2210.0,8.003e-06
2215.0,7.488e-06
2220.0,7.604e-06
2225.0,7.275e-06
2230.0,7.251e-06
2235.0,6.98e-06
2240.0,6.834e-06
2245.0,6.452e-06
2250.0,6.602e-06
2255.0,6.024e-06
2260.0,5.875e-06
2265.0,6.015e-06
2270.0,5.563e-06
2275.0,5.426e-06
2280.0,5.685e-06
2285.0,5.232e-06
2290.0,5.192e-06
2295.0,5.004e-06
2300.0,4.688e-06
2305.0,4.692e-06
2310.0,5.182e-06
2315.0,4.53e-06
2320.0,3.925e-06
2325.0,4.389e-06
2330.0,4.331e-06
2335.0,4.408e-06
2340.0,3.346e-06
2345.0,3.754e-06
2350.0,2.94e-06
2355.0,3.396e-06
2360.0,3.583e-06
2365.0,3.526e-06
2370.0,2.019e-06
2375.0,3.037e-06
2380.0,2.887e-06
2385.0,2.029e-06
2390.0,2.405e-06
2395.0,2.635e-06
2400.0,2.868e-06
2405.0,2.149e-06
2410.0,2.136e-06
2415.0,1.69e-06
2420.0,1.625e-06
2425.0,2.036e-06
2430.0,2.773e-06
2435.0,8.568e-07
2440.0,2.664e-06
2445.0,1.202e-06
2450.0,7.558e-07
2455.0,1.438e-06
2460.0,1.931e-06
2465.0,1.351e-06
2470.0,8.923e-07
2475.0,8.644e-07
2480.0,4.041e-07
2485.0,2.632e-07
2490.0,1.514e-07
2495.0,1.309e-07
2500.0,3.248e-07
2505.0,6.604e-08
2510.0,9.711e-08
2515.0,2.057e-08
2520.0,1.156e-08
2525.0,1.319e-09
2530.0,9.18e-12
2535.0,2.03e-12
2540.0,4.817e-12
2545.0,3.736e-16
2550.0,1.515e-18
2555.0,7.269e-15
2560.0,2.182e-16
2565.0,4.8840000000000004e-20
2570.0,1.454e-24
2575.0,9.200000000000001e-35
2580.0,9.593999999999999e-29
2585.0,2.0050000000000002e-42
2590.0,1.251e-38
2595.0,2.4339999999999998e-40
2600.0,2.0040000000000002e-35
2605.0,2.215e-42
2610.0,7.624e-42
2615.0,0.0
2620.0,6.718e-36
2625.0,1.23e-35
2630.0,0.0
2635.0,6.406999999999999e-22
2640.0,1.3869999999999999e-22
2645.0,6.046e-25
2650.0,6.022000000000001e-26
2655.0,7.242e-35
2660.0,6.097e-32
2665.0,5.605e-45
2670.0,0.0
2675.0,2.943e-44
2680.0,1.236e-30
2685.0,1.181e-31
2690.0,4.4190000000000006e-31
2695.0,1.734e-33
2700.0,5.05e-29
2705.0,1.432e-26
2710.0,1.14e-31
2715.0,1.4399999999999998e-29
2720.0,0.0
2725.0,3.225e-27
2730.0,9.400000000000001e-25
2735.0,1.072e-26
2740.0,1.936e-32
2745.0,2.497e-27
2750.0,1.3990000000000002e-26
2755.0,2.2520000000000003e-28
2760.0,3.373e-23
2765.0,1.583e-29
2770.0,7.78e-27
2775.0,9.605e-24
2780.0,4.472e-21
2785.0,1.6790000000000002e-20
2790.0,3.828e-18
2795.0,8.422e-19
2800.0,2.689e-15
2805.0,5.027e-17
2810.0,2.016e-13
2815.0,6.013e-14
2820.0,7.347e-16
2825.0,6.449e-12
2830.0,1.401e-10
2835.0,1.93e-15
2840.0,4.131e-12
2845.0,1.43e-09
2850.0,2.474e-11
2855.0,9.883e-12
2860.0,5.138e-10
2865.0,3.789e-09
2870.0,9.608e-11
2875.0,9.221e-09
2880.0,5.811e-09
2885.0,9.573e-09
2890.0,4.07e-09
2895.0,6.937e-08
2900.0,1.933e-08
2905.0,2.238e-09
2910.0,7.075e-08
2915.0,3.003e-08
2920.0,7.451e-08
2925.0,2.656e-08
2930.0,1.608e-07
2935.0,1.773e-07
2940.0,3.969e-08
2945.0,3.408e-08
2950.0,1.376e-07
2955.0,6.126e-08
2960.0,1.215e-07
2965.0,2.057e-07
2970.0,8.062e-09
2975.0,2.042e-08
2980.0,3.178e-08
2985.0,1.869e-07
2990.0,2.831e-07
2995.0,1.076e-07
3000.0,2.044e-07
3005.0,6.959e-08
3010.0,1.789e-07
3015.0,1.387e-07
3020.0,1.254e-08
3025.0,1.912e-07
3030.0,1.506e-07
3035.0,5.725e-08
3040.0,4.475e-08
3045.0,9.611e-08
3050.0,2.178e-08
3055.0,5.329e-09
3060.0,1.496e-07
3065.0,6.333e-08
3070.0,3.559e-08
3075.0,1.394e-07
3080.0,8.1e-08
3085.0,3.577e-08
3090.0,4.864e-08
3095.0,1.197e-08
3100.0,9.722e-08
3105.0,1.822e-08
3110.0,1.525e-08
3115.0,4.575e-08
3120.0,2.242e-07
3125.0,6.585e-08
3130.0,1.307e-07
3135.0,2.62e-07
3140.0,6.967e-08
3145.0,6.832e-08
3150.0,1.442e-07
3155.0,1.213e-07
3160.0,2.012e-07
3165.0,3.158e-07
3170.0,2.796e-07
3175.0,1.965e-07
3180.0,2.318e-07
3185.0,1.622e-07
3190.0,8.502e-08
3195.0,4.72e-08
3200.0,6.662e-09
3205.0,4.352e-09
3210.0,1.813e-09
3215.0,7.371e-09
3220.0,2.588e-08
3225.0,2.976e-09
3230.0,4.942e-09
3235.0,1.385e-07
3240.0,6.297e-08
3245.0,1.195e-08
3250.0,4.409e-08
3255.0,1.889e-07
3260.0,1.886e-08
3265.0,4.084e-08
3270.0,1.923e-08
3275.0,1.16e-07
3280.0,4.929e-08
3285.0,2.134e-07
3290.0,1.606e-07
3295.0,1.976e-08
3300.0,2.936e-08
3305.0,6.742e-08
3310.0,6.402e-08
3315.0,9.28e-11
3320.0,5.848e-10
3325.0,5.377e-08
3330.0,8.167e-08
3335.0,1.58e-07
3340.0,5.823e-08
3345.0,5.656e-08
3350.0,1.409e-07
3355.0,5.721e-08
3360.0,8.782e-08
3365.0,1.238e-07
3370.0,5.997e-08
3375.0,1.453e-07
3380.0,7.893e-08
3385.0,1.251e-07
3390.0,1.643e-07
3395.0,1.593e-07
3400.0,2.149e-07
3405.0,6.577e-08
3410.0,1.155e-07
3415.0,1.123e-07
3420.0,2.238e-07
3425.0,1.603e-07
3430.0,1.352e-07
3435.0,1.921e-07
3440.0,1.23e-07
3445.0,1.829e-07
3450.0,1.785e-07
3455.0,1.274e-07
3460.0,2.028e-07
3465.0,1.501e-07
3470.0,1.958e-07
3475.0,1.698e-07
3480.0,1.738e-07
3485.0,1.888e-07
3490.0,1.575e-07
3495.0,1.894e-07
3500.0,1.829e-07
3505.0,1.803e-07
3510.0,1.822e-07
3515.0,1.727e-07
3520.0,1.831e-07
3525.0,1.698e-07
3530.0,1.64e-07
3535.0,1.341e-07
3540.0,1.267e-07
3545.0,1.338e-07
3550.0,1.505e-07
3555.0,1.262e-07
3560.0,1.534e-07
3565.0,1.527e-07
3570.0,1.151e-07
3575.0,1.187e-07
3580.0,1.425e-07
3585.0,1.242e-07
3590.0,1.295e-07
3595.0,1.322e-07
3600.0,1.41e-07
3605.0,1.403e-07
3610.0,1.27e-07
3615.0,1.271e-07
3620.0,1.584e-07
3625.0,1.348e-07
3630.0,1.311e-07
3635.0,1.349e-07
3640.0,1.523e-07
3645.0,1.363e-07
3650.0,1.294e-07
3655.0,1.414e-07
3660.0,1.401e-07
3665.0,1.283e-07
3670.0,9.65e-08
3675.0,5.491e-08
3680.0,9.982e-08
3685.0,1.145e-07
3690.0,1.179e-07
3695.0,1.232e-07
3700.0,1.338e-07
3705.0,1.31e-07
3710.0,1.112e-07
3715.0,1.092e-07
3720.0,1.248e-07
3725.0,1.28e-07
3730.0,1.085e-07
3735.0,9.79e-08
3740.0,1.006e-07
3745.0,1.19e-07
3750.0,1.065e-07
3755.0,1.023e-07
3760.0,1.001e-07
3765.0,9.587e-08
3770.0,1.03e-07
3775.0,1.013e-07
3780.0,1.077e-07
3785.0,9.706e-08
3790.0,8.415e-08
3795.0,9.734e-08
3800.0,1.102e-07
3805.0,1.022e-07
3810.0,8.872e-08
3815.0,8.225e-08
3820.0,1.054e-07
3825.0,1.026e-07
3830.0,1.038e-07
3835.0,7.957e-08
3840.0,9.507e-08
3845.0,9.183e-08
3850.0,9.206e-08
3855.0,8.735e-08
3860.0,8.038e-08
3865.0,8.069e-08
3870.0,7.197e-08
3875.0,6.45e-08
3880.0,6.179e-08
3885.0,6.396e-08
3890.0,6.47e-08
3895.0,7.144e-08
3900.0,7.623e-08
3905.0,7.563e-08
3910.0,6.654e-08
3915.0,6.442e-08
3920.0,6.405e-08
3925.0,6.259e-08
3930.0,6.468e-08
3935.0,6.748e-08
3940.0,6.813e-08
3945.0,6.916e-08
3950.0,7.006e-08
3955.0,7.06e-08
3960.0,7.101e-08
3965.0,7.136e-08
3970.0,7.016e-08
3975.0,6.781e-08
3980.0,6.645e-08
3985.0,6.643e-08
3990.0,6.516e-08
3995.0,6.33e-08
4000.0,6.031e-08
