interpolation:linear
wavelength,value
280.0,7.783000000000001e-20
280.5,2.13e-18
281.0,1.771e-19
281.5,4.92e-19
282.0,2.293e-18
282.5,6.609e-18
283.0,2.221e-17
283.5,3.672e-17
284.0,5.743e-16
284.5,1.608e-15
285.0,3.572e-15
285.5,2.261e-14
286.0,9.732e-14
286.5,4.757e-13
287.0,1.42e-12
287.5,5.616e-12
288.0,1.528e-11
288.5,6e-11
289.0,1.994e-10
289.5,7.41e-10
290.0,2.404e-09
290.5,5.557e-09
291.0,1.376e-08
291.5,4.7e-08
292.0,1.186e-07
292.5,1.844e-07
293.0,4.518e-07
293.5,1.333e-06
294.0,2.423e-06
294.5,2.555e-06
295.0,5.033e-06
295.5,1.091e-05
296.0,2.04e-05
296.5,2.771e-05
297.0,3.662e-05
297.5,9.524e-05
298.0,0.0001464
298.5,0.0001445
299.0,0.000313
299.5,0.0005064
300.0,0.0005485
300.5,0.0007829
301.0,0.001388
301.5,0.002171
302.0,0.001836
302.5,0.003392
303.0,0.005675
303.5,0.006833
304.0,0.006243
304.5,0.008741
305.0,0.01218
305.5,0.01322
306.0,0.0125
306.5,0.01502
307.0,0.02076
307.5,0.02584
308.0,0.0269
308.5,0.0307
309.0,0.03095
309.5,0.03322
310.0,0.03235
310.5,0.05148
311.0,0.06296
311.5,0.05994
312.0,0.05706
312.5,0.06717
313.0,0.07144
313.5,0.06997
314.0,0.08423
314.5,0.07127
315.0,0.09252
315.5,0.07856
316.0,0.06605
316.5,0.09184
317.0,0.1135
317.5,0.1185
318.0,0.09033
318.5,0.1079
319.0,0.1254
319.5,0.1045
320.0,0.1261
320.5,0.152
321.0,0.1309
321.5,0.1246
322.0,0.1362
322.5,0.1178
323.0,0.1144
323.5,0.1402
324.0,0.1625
324.5,0.1654
325.0,0.1408
325.5,0.1775
326.0,0.2196
326.5,0.2171
327.0,0.216
327.5,0.2085
328.0,0.187
328.5,0.1929
329.0,0.2275
329.5,0.2563
330.0,0.258
330.5,0.2072
331.0,0.2107
331.5,0.2119
332.0,0.226
332.5,0.2218
333.0,0.2206
333.5,0.1999
334.0,0.204
334.5,0.2328
335.0,0.217
335.5,0.2596
336.0,0.1789
336.5,0.2029
337.0,0.1661
337.5,0.2059
338.0,0.1991
338.5,0.2342
339.0,0.2294
339.5,0.2206
340.0,0.2525
340.5,0.2265
341.0,0.2242
341.5,0.2029
342.0,0.2409
342.5,0.2238
343.0,0.2464
343.5,0.232
344.0,0.1681
344.5,0.1732
345.0,0.2252
345.5,0.2279
346.0,0.1923
346.5,0.2164
347.0,0.2323
347.5,0.1873
348.0,0.2114
348.5,0.2098
349.0,0.1935
349.5,0.1908
350.0,0.2349
350.5,0.2466
351.0,0.2198
351.5,0.2142
352.0,0.228
352.5,0.1765
353.0,0.221
353.5,0.235
354.0,0.2426
354.5,0.245
355.0,0.2432
355.5,0.2186
356.0,0.2276
356.5,0.1934
357.0,0.1591
357.5,0.1939
358.0,0.1529
358.5,0.1301
359.0,0.1812
359.5,0.2301
360.0,0.2428
360.5,0.193
361.0,0.1751
361.5,0.2007
362.0,0.1727
362.5,0.238
363.0,0.2128
363.5,0.1951
364.0,0.2376
364.5,0.2022
365.0,0.205
365.5,0.2562
366.0,0.2702
366.5,0.2527
367.0,0.245
367.5,0.2531
368.0,0.2205
368.5,0.2216
369.0,0.2382
369.5,0.2528
370.0,0.2683
370.5,0.2073
371.0,0.2205
371.5,0.2746
372.0,0.1815
372.5,0.2166
373.0,0.2194
373.5,0.1421
374.0,0.2056
374.5,0.1696
375.0,0.1641
375.5,0.2439
376.0,0.2013
376.5,0.2077
377.0,0.2189
377.5,0.255
378.0,0.2752
378.5,0.2589
379.0,0.2127
379.5,0.1934
380.0,0.2001
380.5,0.2412
381.0,0.2406
381.5,0.1899
382.0,0.1678
382.5,0.1424
383.0,0.1312
383.5,0.1258
384.0,0.1382
384.5,0.2024
385.0,0.1998
385.5,0.1853
386.0,0.158
386.5,0.2066
387.0,0.1709
387.5,0.1911
388.0,0.1756
388.5,0.1728
389.0,0.1857
389.5,0.2239
390.0,0.2237
390.5,0.205
391.0,0.2402
391.5,0.2439
392.0,0.2045
392.5,0.1822
393.0,0.101
393.5,0.07307
394.0,0.148
394.5,0.1874
395.0,0.2277
395.5,0.2303
396.0,0.1988
396.5,0.1157
397.0,0.08644
397.5,0.175
398.0,0.244
398.5,0.2511
399.0,0.2708
399.5,0.2687
400.0,0.2778
401.0,0.2728
402.0,0.2852
403.0,0.2686
404.0,0.2622
405.0,0.2599
406.0,0.2534
407.0,0.2471
408.0,0.2545
409.0,0.2702
410.0,0.2341
411.0,0.2515
412.0,0.2678
413.0,0.259
414.0,0.2599
415.0,0.2584
416.0,0.2606
417.0,0.252
418.0,0.2452
419.0,0.2462
420.0,0.243
421.0,0.252
422.0,0.2374
423.0,0.2299
424.0,0.241
425.0,0.2385
426.0,0.2304
427.0,0.2242
428.0,0.2166
429.0,0.2035
430.0,0.1766
431.0,0.1736
432.0,0.2221
433.0,0.2214
434.0,0.2039
435.0,0.2112
436.0,0.2361
437.0,0.2311
438.0,0.2088
439.0,0.2143
440.0,0.2193
441.0,0.2253
442.0,0.2396
443.0,0.2314
444.0,0.2346
445.0,0.2276
446.0,0.2155
447.0,0.231
448.0,0.2326
449.0,0.2316
450.0,0.236
451.0,0.2428
452.0,0.232
453.0,0.2165
454.0,0.2242
455.0,0.2237
456.0,0.2271
457.0,0.229
458.0,0.2194
459.0,0.2165
460.0,0.2153
461.0,0.2185
462.0,0.2185
463.0,0.2154
464.0,0.2104
465.0,0.2061
466.0,0.2065
467.0,0.201
468.0,0.2016
469.0,0.2009
470.0,0.1931
471.0,0.1914
472.0,0.2002
473.0,0.196
474.0,0.1947
475.0,0.1948
476.0,0.1875
477.0,0.1865
478.0,0.1901
479.0,0.1874
480.0,0.1862
481.0,0.188
482.0,0.1875
483.0,0.1838
484.0,0.1786
485.0,0.1689
486.0,0.1465
487.0,0.1524
488.0,0.1659
489.0,0.1651
490.0,0.1724
491.0,0.1682
492.0,0.1576
493.0,0.1615
494.0,0.1619
495.0,0.1621
496.0,0.1619
497.0,0.1631
498.0,0.1543
499.0,0.1551
500.0,0.1494
501.0,0.1454
502.0,0.1422
503.0,0.1468
504.0,0.142
505.0,0.146
506.0,0.1497
507.0,0.1414
508.0,0.136
509.0,0.1388
510.0,0.1371
511.0,0.1398
512.0,0.1403
513.0,0.1318
514.0,0.1299
515.0,0.1277
516.0,0.1265
517.0,0.1116
518.0,0.1165
519.0,0.1213
520.0,0.1248
521.0,0.125
522.0,0.1243
523.0,0.1212
524.0,0.1247
525.0,0.1253
526.0,0.1188
527.0,0.1111
528.0,0.1166
529.0,0.1221
530.0,0.1196
531.0,0.1205
532.0,0.1156
533.0,0.1114
534.0,0.114
535.0,0.1157
536.0,0.1159
537.0,0.1106
538.0,0.1117
539.0,0.1101
540.0,0.1049
541.0,0.1049
542.0,0.1074
543.0,0.1055
544.0,0.1067
545.0,0.1058
546.0,0.1055
547.0,0.1048
548.0,0.1028
549.0,0.1024
550.0,0.103
551.0,0.101
552.0,0.101
553.0,0.09855
554.0,0.1003
555.0,0.0998
556.0,0.09781
557.0,0.0941
558.0,0.09273
559.0,0.09036
560.0,0.09085
561.0,0.09138
562.0,0.09008
563.0,0.09191
564.0,0.08883
565.0,0.08749
566.0,0.08562
567.0,0.08664
568.0,0.08529
569.0,0.0827
570.0,0.08216
571.0,0.08113
572.0,0.08251
573.0,0.08288
574.0,0.08213
575.0,0.08012
576.0,0.07888
577.0,0.07923
578.0,0.07757
579.0,0.07743
580.0,0.07845
581.0,0.07836
582.0,0.07935
583.0,0.07911
584.0,0.07937
585.0,0.07698
586.0,0.07488
587.0,0.07599
588.0,0.07368
589.0,0.06481
590.0,0.06739
591.0,0.07094
592.0,0.06958
593.0,0.07019
594.0,0.06923
595.0,0.06708
596.0,0.06938
597.0,0.0682
598.0,0.0676
599.0,0.06724
600.0,0.06695
601.0,0.06602
602.0,0.06519
603.0,0.06586
604.0,0.06655
605.0,0.06582
606.0,0.06519
607.0,0.06547
608.0,0.06437
609.0,0.0641
610.0,0.06329
611.0,0.06327
612.0,0.06274
613.0,0.06159
614.0,0.0604
615.0,0.06138
616.0,0.05903
617.0,0.05859
618.0,0.06052
619.0,0.05958
620.0,0.05963
621.0,0.05936
622.0,0.05832
623.0,0.05709
624.0,0.05579
625.0,0.05539
626.0,0.05592
627.0,0.05623
628.0,0.05204
629.0,0.0542
630.0,0.05264
631.0,0.05358
632.0,0.05267
633.0,0.05403
634.0,0.05325
635.0,0.05378
636.0,0.05278
637.0,0.05336
638.0,0.0536
639.0,0.05272
640.0,0.05192
641.0,0.0516
642.0,0.05112
643.0,0.05156
644.0,0.05114
645.0,0.05093
646.0,0.04944
647.0,0.04856
648.0,0.04831
649.0,0.04713
650.0,0.04716
651.0,0.04895
652.0,0.04657
653.0,0.04779
654.0,0.04702
655.0,0.04497
656.0,0.03967
657.0,0.04055
658.0,0.04525
659.0,0.04535
660.0,0.04529
661.0,0.04536
662.0,0.04523
663.0,0.04413
664.0,0.04444
665.0,0.04425
666.0,0.04406
667.0,0.0438
668.0,0.04361
669.0,0.04405
670.0,0.04363
671.0,0.0434
672.0,0.04285
673.0,0.04333
674.0,0.04294
675.0,0.04232
676.0,0.0424
677.0,0.04179
678.0,0.04172
679.0,0.04085
680.0,0.04097
681.0,0.0405
682.0,0.04025
683.0,0.03997
684.0,0.03955
685.0,0.03968
686.0,0.03925
687.0,0.02534
688.0,0.02983
689.0,0.02979
690.0,0.03117
691.0,0.03277
692.0,0.0339
693.0,0.03343
694.0,0.03293
695.0,0.0342
696.0,0.03405
697.0,0.03618
698.0,0.03545
699.0,0.03432
700.0,0.03373
701.0,0.03323
702.0,0.03334
703.0,0.03323
704.0,0.03417
705.0,0.03404
706.0,0.03387
707.0,0.03374
708.0,0.03365
709.0,0.03355
710.0,0.03336
711.0,0.03322
712.0,0.03301
713.0,0.03251
714.0,0.03245
715.0,0.03122
716.0,0.03109
717.0,0.02653
718.0,0.02405
719.0,0.02173
720.0,0.02277
721.0,0.02525
722.0,0.02915
723.0,0.02677
724.0,0.02377
725.0,0.02328
726.0,0.02439
727.0,0.02457
728.0,0.02291
729.0,0.02375
730.0,0.02513
731.0,0.02383
732.0,0.02552
733.0,0.02702
734.0,0.02755
735.0,0.02684
736.0,0.02669
737.0,0.02666
738.0,0.02701
739.0,0.02633
740.0,0.02691
741.0,0.02652
742.0,0.02643
743.0,0.02696
744.0,0.02674
745.0,0.02662
746.0,0.02662
747.0,0.02655
748.0,0.02636
749.0,0.02592
750.0,0.02578
751.0,0.02541
752.0,0.0254
753.0,0.0254
754.0,0.02532
755.0,0.02506
756.0,0.02494
757.0,0.02486
758.0,0.02443
759.0,0.02379
760.0,0.003557
761.0,0.001815
762.0,0.01146
763.0,0.005461
764.0,0.008357
765.0,0.01128
766.0,0.01401
767.0,0.01786
768.0,0.02074
769.0,0.02112
770.0,0.0218
771.0,0.02191
772.0,0.02185
773.0,0.02189
774.0,0.02168
775.0,0.02142
776.0,0.02158
777.0,0.02119
778.0,0.02096
779.0,0.02087
780.0,0.02065
781.0,0.02058
782.0,0.02061
783.0,0.02016
784.0,0.02016
785.0,0.01992
786.0,0.02005
787.0,0.01959
788.0,0.01924
789.0,0.01913
790.0,0.01849
791.0,0.0186
792.0,0.01838
793.0,0.01798
794.0,0.01825
795.0,0.01847
796.0,0.01776
797.0,0.01771
798.0,0.0182
799.0,0.01799
800.0,0.01757
801.0,0.01743
802.0,0.0173
803.0,0.01708
804.0,0.01703
805.0,0.01691
806.0,0.01733
807.0,0.01703
808.0,0.01698
809.0,0.01657
810.0,0.01634
811.0,0.01628
812.0,0.01569
813.0,0.01526
814.0,0.01319
815.0,0.01304
816.0,0.01195
817.0,0.01215
818.0,0.01162
819.0,0.01311
820.0,0.01221
821.0,0.01449
822.0,0.01395
823.0,0.00902
824.0,0.01338
825.0,0.01393
826.0,0.01327
827.0,0.01405
828.0,0.01164
829.0,0.01303
830.0,0.01279
831.0,0.01279
832.0,0.01229
833.0,0.01319
834.0,0.01261
835.0,0.01391
836.0,0.01319
837.0,0.01383
838.0,0.01332
839.0,0.01351
840.0,0.01375
841.0,0.01348
842.0,0.01347
843.0,0.01341
844.0,0.01316
845.0,0.01356
846.0,0.01344
847.0,0.01314
848.0,0.01299
849.0,0.01257
850.0,0.01199
851.0,0.01263
852.0,0.01248
853.0,0.01196
854.0,0.01028
855.0,0.01125
856.0,0.01224
857.0,0.01247
858.0,0.01233
859.0,0.01229
860.0,0.01226
861.0,0.01214
862.0,0.01228
863.0,0.01253
864.0,0.01185
865.0,0.0117
866.0,0.01047
867.0,0.01089
868.0,0.0118
869.0,0.0115
870.0,0.01178
871.0,0.01157
872.0,0.01148
873.0,0.01141
874.0,0.01123
875.0,0.01095
876.0,0.01101
877.0,0.01108
878.0,0.01115
879.0,0.01093
880.0,0.01065
881.0,0.01045
882.0,0.01063
883.0,0.01063
884.0,0.01053
885.0,0.01056
886.0,0.01001
887.0,0.01009
888.0,0.01019
889.0,0.01027
890.0,0.01013
891.0,0.01008
892.0,0.009735
893.0,0.009359
894.0,0.008946
895.0,0.008358
896.0,0.007747
897.0,0.006501
898.0,0.00715
899.0,0.005208
900.0,0.007307
901.0,0.00551
902.0,0.006563
903.0,0.006585
904.0,0.008517
905.0,0.00815
906.0,0.007548
907.0,0.005924
908.0,0.006051
909.0,0.006623
910.0,0.005722
911.0,0.006128
912.0,0.006424
913.0,0.005739
914.0,0.005663
915.0,0.006205
916.0,0.00509
917.0,0.006689
918.0,0.00521
919.0,0.006756
920.0,0.006806
921.0,0.007133
922.0,0.006254
923.0,0.006833
924.0,0.006382
925.0,0.006193
926.0,0.006264
927.0,0.00707
928.0,0.004944
929.0,0.00445
930.0,0.003363
931.0,0.003144
932.0,0.002164
933.0,0.001708
934.0,0.0008763
935.0,0.001736
936.0,0.001026
937.0,0.001037
938.0,0.0013
939.0,0.002944
940.0,0.003628
941.0,0.002637
942.0,0.003092
943.0,0.001908
944.0,0.002012
945.0,0.002673
946.0,0.001242
947.0,0.002665
948.0,0.001865
949.0,0.003697
950.0,0.0008692
951.0,0.003606
952.0,0.001768
953.0,0.002355
954.0,0.002973
955.0,0.002384
956.0,0.002275
957.0,0.001743
958.0,0.003358
959.0,0.002572
960.0,0.00293
961.0,0.003325
962.0,0.00311
963.0,0.003651
964.0,0.003286
965.0,0.003609
966.0,0.003602
967.0,0.003565
968.0,0.004981
969.0,0.005229
970.0,0.004715
971.0,0.005498
972.0,0.005195
973.0,0.004416
974.0,0.004146
975.0,0.0043
976.0,0.004042
977.0,0.004677
978.0,0.004392
979.0,0.004622
980.0,0.004278
981.0,0.005259
982.0,0.004975
983.0,0.004732
984.0,0.005393
985.0,0.004904
986.0,0.005466
987.0,0.005323
988.0,0.00529
989.0,0.005398
990.0,0.005223
991.0,0.005367
992.0,0.005379
993.0,0.005225
994.0,0.005341
995.0,0.005317
996.0,0.005269
997.0,0.005258
998.0,0.005213
999.0,0.005176
1000.0,0.005116
1001.0,0.005166
1002.0,0.004986
1003.0,0.005035
1004.0,0.004887
1005.0,0.004696
1006.0,0.004856
1007.0,0.004942
1008.0,0.004894
1009.0,0.004846
1010.0,0.004805
1011.0,0.004845
1012.0,0.00478
1013.0,0.004798
1014.0,0.004747
1015.0,0.004697
1016.0,0.004657
1017.0,0.00465
1018.0,0.004617
1019.0,0.004494
1020.0,0.004555
1021.0,0.004533
1022.0,0.004477
1023.0,0.004508
1024.0,0.004427
1025.0,0.004475
1026.0,0.004437
1027.0,0.004409
1028.0,0.004384
1029.0,0.004316
1030.0,0.004332
1031.0,0.004297
1032.0,0.004269
1033.0,0.004188
1034.0,0.004172
1035.0,0.004169
1036.0,0.004174
1037.0,0.004091
1038.0,0.004094
1039.0,0.004077
1040.0,0.004045
1041.0,0.004045
1042.0,0.004002
1043.0,0.003975
1044.0,0.003974
1045.0,0.003905
1046.0,0.003847
1047.0,0.003867
1048.0,0.003874
1049.0,0.003846
1050.0,0.003814
1051.0,0.003794
1052.0,0.003764
1053.0,0.00372
1054.0,0.003715
1055.0,0.003702
1056.0,0.003674
1057.0,0.003649
1058.0,0.003546
1059.0,0.003537
1060.0,0.003518
1061.0,0.0035
1062.0,0.003504
1063.0,0.003457
1064.0,0.003487
1065.0,0.003447
1066.0,0.003368
1067.0,0.003398
1068.0,0.00331
1069.0,0.003196
1070.0,0.003291
1071.0,0.003335
1072.0,0.00328
1073.0,0.003223
1074.0,0.003301
1075.0,0.003109
1076.0,0.003273
1077.0,0.003193
1078.0,0.003119
1079.0,0.003187
1080.0,0.003104
1081.0,0.002993
1082.0,0.003043
1083.0,0.003044
1084.0,0.002945
1085.0,0.003062
1086.0,0.002746
1087.0,0.002857
1088.0,0.002982
1089.0,0.002865
1090.0,0.002775
1091.0,0.002934
1092.0,0.00292
1093.0,0.002413
1094.0,0.002648
1095.0,0.002513
1096.0,0.00238
1097.0,0.002805
1098.0,0.002325
1099.0,0.002424
1100.0,0.002215
1101.0,0.002245
1102.0,0.002125
1103.0,0.002087
1104.0,0.002085
1105.0,0.002312
1106.0,0.001689
1107.0,0.002164
1108.0,0.001779
1109.0,0.001775
1110.0,0.002119
1111.0,0.001345
1112.0,0.001744
1113.0,0.001031
1114.0,0.001167
1115.0,0.0009362
1116.0,0.0007224
1117.0,0.0002337
1118.0,0.0007899
1119.0,0.0003567
1120.0,0.0004609
1121.0,0.0006327
1122.0,0.000238
1123.0,0.000406
1124.0,0.0003346
1125.0,0.0004514
1126.0,0.0001388
1127.0,0.0005127
1128.0,0.0002868
1129.0,0.0003058
1130.0,0.0001912
1131.0,0.001055
1132.0,0.0007935
1133.0,0.0004713
1134.0,0.0001029
1135.0,3.585e-05
1136.0,0.0003793
1137.0,0.001015
1138.0,0.0006752
1139.0,0.001064
1140.0,0.0008635
1141.0,0.0006304
1142.0,0.000737
1143.0,0.001102
1144.0,0.0003303
1145.0,0.0004341
1146.0,0.000471
1147.0,0.0001459
1148.0,0.0009151
1149.0,0.000704
1150.0,0.0003512
1151.0,0.00064
1152.0,0.0008105
1153.0,0.0007817
1154.0,0.0004067
1155.0,0.00106
1156.0,0.0009364
1157.0,0.001066
1158.0,0.001049
1159.0,0.001145
1160.0,0.0009514
1161.0,0.00121
1162.0,0.001208
1163.0,0.001706
1164.0,0.001424
1165.0,0.001328
1166.0,0.001311
1167.0,0.001442
1168.0,0.001456
1169.0,0.001497
1170.0,0.001636
1171.0,0.001582
1172.0,0.001608
1173.0,0.001615
1174.0,0.001093
1175.0,0.001567
1176.0,0.001736
1177.0,0.001652
1178.0,0.001184
1179.0,0.001733
1180.0,0.001515
1181.0,0.001568
1182.0,0.001019
1183.0,0.001539
1184.0,0.001416
1185.0,0.001353
1186.0,0.001641
1187.0,0.001547
1188.0,0.001025
1189.0,0.001424
1190.0,0.001579
1191.0,0.001484
1192.0,0.001594
1193.0,0.001512
1194.0,0.001562
1195.0,0.001465
1196.0,0.001399
1197.0,0.001558
1198.0,0.001404
1199.0,0.001167
1200.0,0.001466
1201.0,0.001402
1202.0,0.001388
1203.0,0.001382
1204.0,0.001175
1205.0,0.001414
1206.0,0.001583
1207.0,0.001369
1208.0,0.00135
1209.0,0.001373
1210.0,0.001433
1211.0,0.001351
1212.0,0.001329
1213.0,0.001496
1214.0,0.001357
1215.0,0.001323
1216.0,0.001477
1217.0,0.001428
1218.0,0.001455
1219.0,0.001431
1220.0,0.001447
1221.0,0.00146
1222.0,0.001412
1223.0,0.001393
1224.0,0.001379
1225.0,0.001432
1226.0,0.001439
1227.0,0.001312
1228.0,0.001438
1229.0,0.001425
1230.0,0.001394
1231.0,0.001435
1232.0,0.001421
1233.0,0.001362
1234.0,0.001421
1235.0,0.001406
1236.0,0.001413
1237.0,0.001387
1238.0,0.001399
1239.0,0.001376
1240.0,0.001377
1241.0,0.001365
1242.0,0.001359
1243.0,0.001343
1244.0,0.001347
1245.0,0.001349
1246.0,0.001337
1247.0,0.001327
1248.0,0.001321
1249.0,0.001322
1250.0,0.001309
1251.0,0.001287
1252.0,0.001284
1253.0,0.001268
1254.0,0.00125
1255.0,0.00127
1256.0,0.001227
1257.0,0.001216
1258.0,0.001238
1259.0,0.001184
1260.0,0.001187
1261.0,0.00111
1262.0,0.00107
1263.0,0.001069
1264.0,0.0009761
1265.0,0.001057
1266.0,0.001009
1267.0,0.001027
1268.0,0.0009656
1269.0,0.000566
1270.0,0.001014
1271.0,0.001078
1272.0,0.001079
1273.0,0.001063
1274.0,0.001064
1275.0,0.001077
1276.0,0.001086
1277.0,0.00109
1278.0,0.001111
1279.0,0.001097
1280.0,0.001079
1281.0,0.001028
1282.0,0.0009895
1283.0,0.001062
1284.0,0.001083
1285.0,0.001087
1286.0,0.0011
1287.0,0.001077
1288.0,0.001074
1289.0,0.001033
1290.0,0.001058
1291.0,0.00107
1292.0,0.0009937
1293.0,0.00104
1294.0,0.001029
1295.0,0.00102
1296.0,0.000965
1297.0,0.0009041
1298.0,0.0009797
1299.0,0.001022
1300.0,0.0008437
1301.0,0.0008715
1302.0,0.0009656
1303.0,0.0008249
1304.0,0.0006871
1305.0,0.0009336
1306.0,0.0009315
1307.0,0.0006957
1308.0,0.000812
1309.0,0.0009157
1310.0,0.0006748
1311.0,0.0007677
1312.0,0.0007455
1313.0,0.0007258
1314.0,0.0006355
1315.0,0.0006288
1316.0,0.0007447
1317.0,0.0006962
1318.0,0.0007644
1319.0,0.0005752
1320.0,0.0005512
1321.0,0.0006563
1322.0,0.0006628
1323.0,0.0004774
1324.0,0.0005538
1325.0,0.0007124
1326.0,0.0005966
1327.0,0.0005632
1328.0,0.0004737
1329.0,0.0003422
1330.0,0.0004613
1331.0,0.0002593
1332.0,0.0002675
1333.0,0.0003898
1334.0,0.0003184
1335.0,0.0004591
1336.0,0.0003497
1337.0,0.0003033
1338.0,0.0003314
1339.0,0.0003289
1340.0,0.000316
1341.0,0.0003085
1342.0,0.0003255
1343.0,0.0002105
1344.0,0.0001169
1345.0,0.0001763
1346.0,8.147e-05
1347.0,8.296e-05
1348.0,4.483e-06
1349.0,1.723e-05
1350.0,1.778e-05
1351.0,4.046e-06
1352.0,1.051e-06
1353.0,5.105e-08
1354.0,1.775e-07
1355.0,1.391e-09
1356.0,2.459e-08
1357.0,3.747e-08
1358.0,1.634e-09
1359.0,2.053e-10
1360.0,7.43e-10
1361.0,8.28e-13
1362.0,2.264e-15
1363.0,1e-09
1364.0,4.122e-10
1365.0,7.905e-16
1366.0,4.354e-09
1367.0,1.77e-09
1368.0,6.104e-18
1369.0,1.517e-10
1370.0,7.467e-11
1371.0,4.227e-12
1372.0,9.587e-10
1373.0,1.952e-08
1374.0,9.159e-08
1375.0,1.676e-07
1376.0,1.494e-07
1377.0,6.766e-08
1378.0,6.869e-07
1379.0,2.807e-08
1380.0,4.052e-08
1381.0,1.04e-09
1382.0,8.401e-10
1383.0,1.251e-11
1384.0,1.643e-10
1385.0,7.867e-10
1386.0,7.407e-10
1387.0,9.185e-08
1388.0,1.762e-09
1389.0,3.147e-07
1390.0,2.693e-07
1391.0,1.78e-07
1392.0,1.125e-08
1393.0,6.022e-08
1394.0,3.101e-08
1395.0,2.234e-10
1396.0,1.078e-12
1397.0,2.356e-08
1398.0,7.303e-07
1399.0,4.565e-07
1400.0,4.607e-13
1401.0,1.912e-12
1402.0,1.283e-06
1403.0,1.624e-06
1404.0,4.779e-07
1405.0,1.057e-10
1406.0,1.272e-06
1407.0,1.066e-07
1408.0,1.027e-06
1409.0,3.352e-07
1410.0,2.664e-07
1411.0,1.389e-06
1412.0,1.884e-06
1413.0,2.188e-05
1414.0,2.07e-07
1415.0,9.807e-08
1416.0,3.703e-05
1417.0,1.015e-05
1418.0,1.161e-05
1419.0,1.645e-06
1420.0,6.852e-06
1421.0,7.432e-06
1422.0,4.877e-05
1423.0,8.302e-06
1424.0,1.615e-05
1425.0,2.436e-05
1426.0,2.797e-05
1427.0,5.442e-05
1428.0,3.312e-06
1429.0,3.925e-05
1430.0,7.059e-05
1431.0,7.818e-05
1432.0,2.548e-06
1433.0,4.699e-05
1434.0,2.242e-05
1435.0,2.2e-05
1436.0,4.538e-05
1437.0,3.383e-05
1438.0,1.32e-05
1439.0,6.341e-05
1440.0,4.614e-05
1441.0,3.382e-05
1442.0,3.782e-05
1443.0,4.879e-05
1444.0,7.007e-05
1445.0,5.276e-05
1446.0,2.189e-05
1447.0,3.584e-05
1448.0,0.0001419
1449.0,0.0001203
1450.0,2.573e-05
1451.0,9.571e-06
1452.0,6.715e-05
1453.0,9.105e-05
1454.0,0.0001699
1455.0,7.185e-05
1456.0,9.943e-05
1457.0,0.0001394
1458.0,0.0001688
1459.0,0.000204
1460.0,9.637e-05
1461.0,0.0001003
1462.0,0.0001558
1463.0,4.325e-05
1464.0,0.0001893
1465.0,0.000106
1466.0,6.822e-05
1467.0,3.305e-05
1468.0,8.208e-05
1469.0,0.000104
1470.0,4.695e-05
1471.0,1.534e-05
1472.0,4.448e-05
1473.0,7.176e-05
1474.0,0.0001103
1475.0,0.0002296
1476.0,7.104e-05
1477.0,7.129e-05
1478.0,6.56e-05
1479.0,0.0001376
1480.0,6.002e-05
1481.0,0.0001299
1482.0,5.833e-05
1483.0,0.0001752
1484.0,0.0001613
1485.0,0.0001407
1486.0,0.0001379
1487.0,5.685e-05
1488.0,0.0001079
1489.0,0.0002327
1490.0,0.0002114
1491.0,0.000244
1492.0,0.0001949
1493.0,0.0002175
1494.0,0.0002492
1495.0,0.0002171
1496.0,0.0002012
1497.0,0.0002887
1498.0,0.0002278
1499.0,0.0002723
1500.0,0.0003188
1501.0,0.0003377
1502.0,0.0002785
1503.0,0.0002312
1504.0,0.0001794
1505.0,0.0002213
1506.0,0.0003339
1507.0,0.0003185
1508.0,0.000301
1509.0,0.0002208
1510.0,0.0003439
1511.0,0.0003308
1512.0,0.0003269
1513.0,0.0002965
1514.0,0.0002739
1515.0,0.0003342
1516.0,0.0003175
1517.0,0.000309
1518.0,0.000307
1519.0,0.000299
1520.0,0.000324
1521.0,0.0003468
1522.0,0.0003277
1523.0,0.0003503
1524.0,0.0003388
1525.0,0.0003215
1526.0,0.000326
1527.0,0.000322
1528.0,0.0003443
1529.0,0.0003257
1530.0,0.0003189
1531.0,0.0003271
1532.0,0.0003402
1533.0,0.0003395
1534.0,0.0003326
1535.0,0.0003299
1536.0,0.0003356
1537.0,0.0003273
1538.0,0.0003302
1539.0,0.0003237
1540.0,0.000324
1541.0,0.0003255
1542.0,0.000321
1543.0,0.0003261
1544.0,0.0003213
1545.0,0.000327
1546.0,0.0003211
1547.0,0.0003159
1548.0,0.0003151
1549.0,0.0003172
1550.0,0.0003143
1551.0,0.0003158
1552.0,0.0003125
1553.0,0.00031
1554.0,0.0003065
1555.0,0.0003066
1556.0,0.0003056
1557.0,0.0003085
1558.0,0.000306
1559.0,0.0003034
1560.0,0.0003048
1561.0,0.0003063
1562.0,0.0003017
1563.0,0.0002986
1564.0,0.0002993
1565.0,0.0002992
1566.0,0.0002946
1567.0,0.0002945
1568.0,0.0002908
1569.0,0.0002921
1570.0,0.0002941
1571.0,0.0002958
1572.0,0.0002934
1573.0,0.0002908
1574.0,0.0002799
1575.0,0.0002759
1576.0,0.000271
1577.0,0.0002634
1578.0,0.000276
1579.0,0.0002779
1580.0,0.0002797
1581.0,0.000275
1582.0,0.0002688
1583.0,0.0002695
1584.0,0.0002738
1585.0,0.0002761
1586.0,0.0002723
1587.0,0.0002672
1588.0,0.0002591
1589.0,0.0002505
1590.0,0.0002556
1591.0,0.0002613
1592.0,0.0002684
1593.0,0.000272
1594.0,0.0002708
1595.0,0.0002667
1596.0,0.0002583
1597.0,0.0002642
1598.0,0.0002673
1599.0,0.0002637
1600.0,0.0002614
1601.0,0.0002571
1602.0,0.0002572
1603.0,0.0002592
1604.0,0.0002565
1605.0,0.0002558
1606.0,0.0002522
1607.0,0.0002538
1608.0,0.000253
1609.0,0.0002457
1610.0,0.0002401
1611.0,0.0002438
1612.0,0.000246
1613.0,0.0002458
1614.0,0.0002452
1615.0,0.0002392
1616.0,0.000235
1617.0,0.0002391
1618.0,0.0002426
1619.0,0.0002375
1620.0,0.0002319
1621.0,0.000234
1622.0,0.0002371
1623.0,0.00024
1624.0,0.0002366
1625.0,0.0002351
1626.0,0.0002351
1627.0,0.0002363
1628.0,0.000235
1629.0,0.0002324
1630.0,0.0002305
1631.0,0.0002286
1632.0,0.0002275
1633.0,0.00022
1634.0,0.0002246
1635.0,0.0002208
1636.0,0.0002185
1637.0,0.0002156
1638.0,0.0002022
1639.0,0.0002099
1640.0,0.0002001
1641.0,0.0002074
1642.0,0.000211
1643.0,0.0001983
1644.0,0.00021
1645.0,0.0002033
1646.0,0.0001977
1647.0,0.0002117
1648.0,0.0001961
1649.0,0.0002055
1650.0,0.0002066
1651.0,0.0001906
1652.0,0.0002035
1653.0,0.0002049
1654.0,0.0001931
1655.0,0.0002039
1656.0,0.0001999
1657.0,0.0002009
1658.0,0.0002031
1659.0,0.000201
1660.0,0.0002023
1661.0,0.0002006
1662.0,0.0001945
1663.0,0.0001987
1664.0,0.0001963
1665.0,0.0001845
1666.0,0.0001489
1667.0,0.0001818
1668.0,0.0001884
1669.0,0.0001892
1670.0,0.0001921
1671.0,0.000186
1672.0,0.0001834
1673.0,0.0001872
1674.0,0.0001825
1675.0,0.0001792
1676.0,0.0001801
1677.0,0.0001793
1678.0,0.0001735
1679.0,0.000177
1680.0,0.0001694
1681.0,0.0001637
1682.0,0.0001726
1683.0,0.0001758
1684.0,0.0001618
1685.0,0.0001769
1686.0,0.000176
1687.0,0.0001686
1688.0,0.0001741
1689.0,0.0001717
1690.0,0.0001706
1691.0,0.0001543
1692.0,0.000169
1693.0,0.0001737
1694.0,0.0001664
1695.0,0.0001709
1696.0,0.0001704
1697.0,0.0001414
1698.0,0.000168
1699.0,0.0001653
1700.0,0.0001602
1702.0,0.0001626
1705.0,0.0001562
1710.0,0.0001459
1715.0,0.0001444
1720.0,0.0001412
1725.0,0.0001298
1730.0,0.0001268
1735.0,0.0001168
1740.0,0.0001173
1745.0,0.000108
1750.0,0.0001154
1755.0,0.0001039
1760.0,0.0001082
1765.0,8.545e-05
1770.0,9.151e-05
1775.0,7.068e-05
1780.0,5.883e-05
1785.0,4.225e-05
1790.0,4.952e-05
1795.0,2.238e-05
1800.0,1.468e-05
1805.0,5.502e-06
1810.0,3.449e-06
1815.0,9.519e-07
1820.0,2.277e-07
1825.0,2.995e-07
1830.0,6.811e-10
1835.0,1.031e-09
1840.0,5.979e-12
1845.0,6.447e-10
1850.0,2.902e-10
1855.0,2.761e-11
1860.0,1.594e-09
1865.0,2.228e-09
1870.0,1.204e-14
1875.0,2.176e-14
1880.0,1.184e-08
1885.0,6.278e-09
1890.0,3.509e-08
1895.0,2.016e-08
1900.0,8.42e-11
1905.0,5.732e-11
1910.0,2.803e-09
1915.0,2.726e-09
1920.0,7.384e-08
1925.0,1.757e-07
1930.0,1.003e-07
1935.0,8.065e-07
1940.0,7.954e-07
1945.0,3.526e-06
1950.0,7.162e-06
1955.0,6.383e-06
1960.0,1.173e-05
1965.0,1.769e-05
1970.0,2.566e-05
1975.0,2.935e-05
1980.0,2.937e-05
1985.0,3.168e-05
1990.0,3.263e-05
1995.0,3.442e-05
2000.0,3.612e-05
2005.0,2.97e-05
2010.0,4.357e-05
2015.0,3.325e-05
2020.0,3.551e-05
2025.0,3.851e-05
2030.0,3.479e-05
2035.0,3.779e-05
2040.0,3.552e-05
2045.0,3.637e-05
2050.0,3.658e-05
2055.0,3.465e-05
2060.0,3.313e-05
2065.0,3.344e-05
2070.0,3.269e-05
2075.0,3.316e-05
2080.0,3.198e-05
2085.0,3.15e-05
2090.0,3.158e-05
2095.0,3.032e-05
2100.0,2.79e-05
2105.0,3.006e-05
2110.0,2.852e-05
2115.0,2.901e-05
2120.0,2.693e-05
2125.0,2.714e-05
2130.0,2.727e-05
2135.0,2.726e-05
2140.0,2.724e-05
2145.0,2.672e-05
2150.0,2.473e-05
2155.0,2.453e-05
2160.0,2.405e-05
2165.0,2.167e-05
2170.0,2.294e-05
2175.0,2.215e-05
2180.0,2.259e-05
2185.0,1.989e-05
2190.0,2.14e-05
2195.0,2.101e-05
2200.0,1.819e-05
2205.0,1.907e-05
2210.0,2.062e-05
2215.0,1.947e-05
2220.0,1.974e-05
2225.0,1.893e-05
2230.0,1.885e-05
2235.0,1.817e-05
2240.0,1.778e-05
2245.0,1.685e-05
2250.0,1.703e-05
2255.0,1.564e-05
2260.0,1.519e-05
2265.0,1.545e-05
2270.0,1.432e-05
2275.0,1.396e-05
2280.0,1.456e-05
2285.0,1.344e-05
2290.0,1.333e-05
2295.0,1.285e-05
2300.0,1.202e-05
2305.0,1.202e-05
2310.0,1.32e-05
2315.0,1.16e-05
2320.0,9.965e-06
2325.0,1.116e-05
2330.0,1.108e-05
2335.0,1.129e-05
2340.0,8.418e-06
2345.0,9.568e-06
2350.0,7.323e-06
2355.0,8.62e-06
2360.0,9.136e-06
2365.0,8.923e-06
2370.0,4.898e-06
2375.0,7.659e-06
2380.0,7.227e-06
2385.0,4.944e-06
2390.0,5.949e-06
2395.0,6.587e-06
2400.0,7.233e-06
2405.0,5.25e-06
2410.0,5.221e-06
2415.0,4.057e-06
2420.0,3.875e-06
2425.0,4.953e-06
2430.0,6.96e-06
2435.0,1.928e-06
2440.0,6.611e-06
2445.0,2.766e-06
2450.0,1.681e-06
2455.0,3.356e-06
2460.0,4.628e-06
2465.0,3.133e-06
2470.0,2.01e-06
2475.0,1.943e-06
2480.0,8.635e-07
2485.0,5.52e-07
2490.0,3.107e-07
2495.0,2.669e-07
2500.0,6.907e-07
2505.0,1.311e-07
2510.0,1.956e-07
2515.0,3.984e-08
2520.0,2.241e-08
2525.0,2.479e-09
2530.0,1.704e-11
2535.0,3.764e-12
2540.0,8.938e-12
2545.0,6.913e-16
2550.0,2.802e-18
2555.0,1.345e-14
2560.0,4.036e-16
2565.0,9.036000000000001e-20
2570.0,2.691e-24
2575.0,1.702e-34
2580.0,1.7750000000000002e-28
2585.0,3.709e-42
2590.0,2.314e-38
2595.0,4.503e-40
2600.0,3.707e-35
2605.0,4.097e-42
2610.0,1.41e-41
2615.0,1.4009999999999999e-45
2620.0,1.243e-35
2625.0,2.276e-35
2630.0,0.0
2635.0,1.185e-21
2640.0,2.5649999999999997e-22
2645.0,1.118e-24
2650.0,1.114e-25
2655.0,1.339e-34
2660.0,1.128e-31
2665.0,1.121e-44
2670.0,0.0
2675.0,5.464999999999999e-44
2680.0,2.2870000000000002e-30
2685.0,2.184e-31
2690.0,8.173e-31
2695.0,3.206e-33
2700.0,9.339999999999999e-29
2705.0,2.648e-26
2710.0,2.109e-31
2715.0,2.663e-29
2720.0,0.0
2725.0,5.9629999999999996e-27
2730.0,1.738e-24
2735.0,1.9820000000000002e-26
2740.0,3.581e-32
2745.0,4.617e-27
2750.0,2.5870000000000005e-26
2755.0,4.164e-28
2760.0,6.237e-23
2765.0,2.9269999999999996e-29
2770.0,1.439e-26
2775.0,1.776e-23
2780.0,8.27e-21
2785.0,3.104e-20
2790.0,7.078e-18
2795.0,1.557e-18
2800.0,4.971e-15
2805.0,9.295e-17
2810.0,3.728e-13
2815.0,1.112e-13
2820.0,1.358e-15
2825.0,1.193e-11
2830.0,2.595e-10
2835.0,3.569e-15
2840.0,7.638e-12
2845.0,2.651e-09
2850.0,4.577e-11
2855.0,1.828e-11
2860.0,9.516e-10
2865.0,7.03e-09
2870.0,1.778e-10
2875.0,1.713e-08
2880.0,1.078e-08
2885.0,1.779e-08
2890.0,7.546e-09
2895.0,1.295e-07
2900.0,3.595e-08
2905.0,4.146e-09
2910.0,1.32e-07
2915.0,5.588e-08
2920.0,1.391e-07
2925.0,4.94e-08
2930.0,3.011e-07
2935.0,3.324e-07
2940.0,7.392e-08
2945.0,6.346e-08
2950.0,2.577e-07
2955.0,1.142e-07
2960.0,2.275e-07
2965.0,3.863e-07
2970.0,1.496e-08
2975.0,3.798e-08
2980.0,5.92e-08
2985.0,3.51e-07
2990.0,5.334e-07
2995.0,2.014e-07
3000.0,3.844e-07
3005.0,1.301e-07
3010.0,3.364e-07
3015.0,2.605e-07
3020.0,2.333e-08
3025.0,3.599e-07
3030.0,2.833e-07
3035.0,1.071e-07
3040.0,8.365e-08
3045.0,1.805e-07
3050.0,4.06e-08
3055.0,9.898e-09
3060.0,2.823e-07
3065.0,1.188e-07
3070.0,6.661e-08
3075.0,2.634e-07
3080.0,1.524e-07
3085.0,6.703e-08
3090.0,9.138e-08
3095.0,2.232e-08
3100.0,1.836e-07
3105.0,3.405e-08
3110.0,2.851e-08
3115.0,8.611e-08
3120.0,4.29e-07
3125.0,1.243e-07
3130.0,2.487e-07
3135.0,5.042e-07
3140.0,1.319e-07
3145.0,1.293e-07
3150.0,2.758e-07
3155.0,2.316e-07
3160.0,3.877e-07
3165.0,6.142e-07
3170.0,5.434e-07
3175.0,3.797e-07
3180.0,4.496e-07
3185.0,3.136e-07
3190.0,1.624e-07
3195.0,8.985e-08
3200.0,1.248e-08
3205.0,8.139e-09
3210.0,3.379e-09
3215.0,1.384e-08
3220.0,4.909e-08
3225.0,5.556e-09
3230.0,9.258e-09
3235.0,2.696e-07
3240.0,1.211e-07
3245.0,2.251e-08
3250.0,8.432e-08
3255.0,3.716e-07
3260.0,3.576e-08
3265.0,7.818e-08
3270.0,3.648e-08
3275.0,2.257e-07
3280.0,9.467e-08
3285.0,4.234e-07
3290.0,3.167e-07
3295.0,3.753e-08
3300.0,5.604e-08
3305.0,1.307e-07
3310.0,1.241e-07
3315.0,1.724e-10
3320.0,1.089e-09
3325.0,1.042e-07
3330.0,1.587e-07
3335.0,3.128e-07
3340.0,1.125e-07
3345.0,1.092e-07
3350.0,2.766e-07
3355.0,1.102e-07
3360.0,1.7e-07
3365.0,2.408e-07
3370.0,1.152e-07
3375.0,2.826e-07
3380.0,1.519e-07
3385.0,2.419e-07
3390.0,3.193e-07
3395.0,3.087e-07
3400.0,4.179e-07
3405.0,1.256e-07
3410.0,2.218e-07
3415.0,2.157e-07
3420.0,4.338e-07
3425.0,3.094e-07
3430.0,2.605e-07
3435.0,3.725e-07
3440.0,2.376e-07
3445.0,3.555e-07
3450.0,3.472e-07
3455.0,2.465e-07
3460.0,3.956e-07
3465.0,2.923e-07
3470.0,3.83e-07
3475.0,3.32e-07
3480.0,3.402e-07
3485.0,3.704e-07
3490.0,3.087e-07
3495.0,3.725e-07
3500.0,3.596e-07
3505.0,3.542e-07
3510.0,3.589e-07
3515.0,3.425e-07
3520.0,3.659e-07
3525.0,3.405e-07
3530.0,3.3e-07
3535.0,2.692e-07
3540.0,2.547e-07
3545.0,2.703e-07
3550.0,3.055e-07
3555.0,2.553e-07
3560.0,3.128e-07
3565.0,3.122e-07
3570.0,2.334e-07
3575.0,2.414e-07
3580.0,2.918e-07
3585.0,2.54e-07
3590.0,2.652e-07
3595.0,2.709e-07
3600.0,2.899e-07
3605.0,2.894e-07
3610.0,2.613e-07
3615.0,2.612e-07
3620.0,3.275e-07
3625.0,2.789e-07
3630.0,2.708e-07
3635.0,2.793e-07
3640.0,3.156e-07
3645.0,2.832e-07
3650.0,2.684e-07
3655.0,2.937e-07
3660.0,2.908e-07
3665.0,2.674e-07
3670.0,1.989e-07
3675.0,1.112e-07
3680.0,2.069e-07
3685.0,2.39e-07
3690.0,2.468e-07
3695.0,2.576e-07
3700.0,2.798e-07
3705.0,2.744e-07
3710.0,2.33e-07
3715.0,2.285e-07
3720.0,2.625e-07
3725.0,2.697e-07
3730.0,2.281e-07
3735.0,2.056e-07
3740.0,2.116e-07
3745.0,2.516e-07
3750.0,2.247e-07
3755.0,2.16e-07
3760.0,2.119e-07
3765.0,2.026e-07
3770.0,2.186e-07
3775.0,2.149e-07
3780.0,2.29e-07
3785.0,2.062e-07
3790.0,1.783e-07
3795.0,2.072e-07
3800.0,2.353e-07
3805.0,2.184e-07
3810.0,1.895e-07
3815.0,1.752e-07
3820.0,2.259e-07
3825.0,2.198e-07
3830.0,2.229e-07
3835.0,1.704e-07
3840.0,2.049e-07
3845.0,1.983e-07
3850.0,1.99e-07
3855.0,1.888e-07
3860.0,1.738e-07
3865.0,1.747e-07
3870.0,1.554e-07
3875.0,1.387e-07
3880.0,1.327e-07
3885.0,1.377e-07
3890.0,1.396e-07
3895.0,1.549e-07
3900.0,1.658e-07
3905.0,1.647e-07
3910.0,1.442e-07
3915.0,1.394e-07
3920.0,1.388e-07
3925.0,1.355e-07
3930.0,1.405e-07
3935.0,1.47e-07
3940.0,1.486e-07
3945.0,1.512e-07
3950.0,1.533e-07
3955.0,1.546e-07
3960.0,1.558e-07
3965.0,1.565e-07
3970.0,1.54e-07
3975.0,1.489e-07
3980.0,1.46e-07
3985.0,1.46e-07
3990.0,1.433e-07
3995.0,1.393e-07
4000.0,1.328e-07
