interpolation:linear
wavelength,value
280.0,3.823e-20
280.5,1.083e-18
281.0,5.531e-18
281.5,4.407e-19
282.0,1.891e-18
282.5,5.337e-18
283.0,1.775e-17
283.5,2.928e-17
284.0,4.613e-16
284.5,1.3e-15
285.0,2.34e-15
285.5,1.407e-14
286.0,5.952e-14
286.5,2.827e-13
287.0,8.292e-13
287.5,3.223e-12
288.0,9.169e-12
288.5,3.546e-11
289.0,1.165e-10
289.5,4.263e-10
290.0,1.362e-09
290.5,3.099e-09
291.0,7.511e-09
291.5,2.482e-08
292.0,6.666e-08
292.5,1.041e-07
293.0,2.569e-07
293.5,7.656e-07
294.0,1.401e-06
294.5,1.549e-06
295.0,3.08e-06
295.5,7.08e-06
296.0,1.34e-05
296.5,1.842e-05
297.0,2.459e-05
297.5,6.499e-05
298.0,0.0001014
298.5,0.0001012
299.0,0.000222
299.5,0.0003675
300.0,0.0004038
300.5,0.0005852
301.0,0.001065
301.5,0.001711
302.0,0.001468
302.5,0.002734
303.0,0.004619
303.5,0.005596
304.0,0.005136
304.5,0.007273
305.0,0.01029
305.5,0.01127
306.0,0.0107
306.5,0.01293
307.0,0.01811
307.5,0.02281
308.0,0.0238
308.5,0.02732
309.0,0.02758
309.5,0.02984
310.0,0.02917
310.5,0.04651
311.0,0.05706
311.5,0.05441
312.0,0.05215
312.5,0.06167
313.0,0.06576
313.5,0.06428
314.0,0.07781
314.5,0.06632
315.0,0.08622
315.5,0.07297
316.0,0.06172
316.5,0.08627
317.0,0.1067
317.5,0.1112
318.0,0.08506
318.5,0.1023
319.0,0.1193
319.5,0.09886
320.0,0.1193
320.5,0.1447
321.0,0.1254
321.5,0.1195
322.0,0.1298
322.5,0.1123
323.0,0.1096
323.5,0.1345
324.0,0.156
324.5,0.1585
325.0,0.1351
325.5,0.1709
326.0,0.211
326.5,0.2089
327.0,0.2078
327.5,0.2005
328.0,0.1794
328.5,0.1856
329.0,0.2195
329.5,0.2475
330.0,0.249
330.5,0.1996
331.0,0.2029
331.5,0.2043
332.0,0.2185
332.5,0.2146
333.0,0.2133
333.5,0.193
334.0,0.197
334.5,0.2253
335.0,0.2102
335.5,0.2509
336.0,0.173
336.5,0.1966
337.0,0.1608
337.5,0.1993
338.0,0.1931
338.5,0.2266
339.0,0.2221
339.5,0.2136
340.0,0.245
340.5,0.2198
341.0,0.2172
341.5,0.1967
342.0,0.2336
342.5,0.2171
343.0,0.2389
343.5,0.2249
344.0,0.1633
344.5,0.1679
345.0,0.2185
345.5,0.2212
346.0,0.1867
346.5,0.2102
347.0,0.2255
347.5,0.1819
348.0,0.2054
348.5,0.2038
349.0,0.1881
349.5,0.1855
350.0,0.2283
350.5,0.2398
351.0,0.2137
351.5,0.2082
352.0,0.2216
352.5,0.1717
353.0,0.215
353.5,0.2286
354.0,0.2362
354.5,0.2384
355.0,0.2368
355.5,0.2128
356.0,0.2216
356.5,0.1884
357.0,0.155
357.5,0.1889
358.0,0.149
358.5,0.1267
359.0,0.1765
359.5,0.2243
360.0,0.2366
360.5,0.1882
361.0,0.1707
361.5,0.1957
362.0,0.1684
362.5,0.2321
363.0,0.2076
363.5,0.1904
364.0,0.2318
364.5,0.1973
365.0,0.2001
365.5,0.25
366.0,0.2637
366.5,0.2467
367.0,0.2392
367.5,0.2471
368.0,0.2153
368.5,0.2164
369.0,0.2326
369.5,0.2469
370.0,0.262
370.5,0.2025
371.0,0.2154
371.5,0.2684
372.0,0.1773
372.5,0.2117
373.0,0.2144
373.5,0.1389
374.0,0.201
374.5,0.1658
375.0,0.1604
375.5,0.2385
376.0,0.1969
376.5,0.2031
377.0,0.2141
377.5,0.2494
378.0,0.2692
378.5,0.2533
379.0,0.2081
379.5,0.1892
380.0,0.1958
380.5,0.2361
381.0,0.2355
381.5,0.1859
382.0,0.1643
382.5,0.1394
383.0,0.1285
383.5,0.1232
384.0,0.1354
384.5,0.1982
385.0,0.1957
385.5,0.1815
386.0,0.1548
386.5,0.2024
387.0,0.1674
387.5,0.1872
388.0,0.1721
388.5,0.1694
389.0,0.182
389.5,0.2195
390.0,0.2193
390.5,0.201
391.0,0.2355
391.5,0.2392
392.0,0.2005
392.5,0.1787
393.0,0.09903
393.5,0.07168
394.0,0.1452
394.5,0.1839
395.0,0.2234
395.5,0.226
396.0,0.1951
396.5,0.1135
397.0,0.08484
397.5,0.1718
398.0,0.2395
398.5,0.2465
399.0,0.2658
399.5,0.2638
400.0,0.2728
401.0,0.2679
402.0,0.2801
403.0,0.2638
404.0,0.2575
405.0,0.2553
406.0,0.249
407.0,0.2428
408.0,0.2501
409.0,0.2656
410.0,0.2302
411.0,0.2472
412.0,0.2633
413.0,0.2547
414.0,0.2556
415.0,0.2542
416.0,0.2564
417.0,0.2479
418.0,0.2412
419.0,0.2423
420.0,0.2392
421.0,0.2481
422.0,0.2337
423.0,0.2263
424.0,0.2373
425.0,0.2348
426.0,0.2269
427.0,0.2208
428.0,0.2134
429.0,0.2005
430.0,0.174
431.0,0.171
432.0,0.2189
433.0,0.2182
434.0,0.2009
435.0,0.2081
436.0,0.2327
437.0,0.2278
438.0,0.2058
439.0,0.2112
440.0,0.2162
441.0,0.2221
442.0,0.2362
443.0,0.2282
444.0,0.2313
445.0,0.2245
446.0,0.2125
447.0,0.2279
448.0,0.2295
449.0,0.2284
450.0,0.2329
451.0,0.2395
452.0,0.2289
453.0,0.2136
454.0,0.2212
455.0,0.2208
456.0,0.2241
457.0,0.226
458.0,0.2165
459.0,0.2136
460.0,0.2125
461.0,0.2156
462.0,0.2156
463.0,0.2126
464.0,0.2076
465.0,0.2034
466.0,0.2038
467.0,0.1984
468.0,0.199
469.0,0.1984
470.0,0.1906
471.0,0.189
472.0,0.1976
473.0,0.1935
474.0,0.1922
475.0,0.1924
476.0,0.1851
477.0,0.1841
478.0,0.1876
479.0,0.1849
480.0,0.1838
481.0,0.1855
482.0,0.185
483.0,0.1814
484.0,0.1763
485.0,0.1667
486.0,0.1447
487.0,0.1505
488.0,0.1638
489.0,0.163
490.0,0.1702
491.0,0.166
492.0,0.1556
493.0,0.1594
494.0,0.1598
495.0,0.16
496.0,0.1598
497.0,0.161
498.0,0.1523
499.0,0.1531
500.0,0.1474
501.0,0.1435
502.0,0.1403
503.0,0.1448
504.0,0.14
505.0,0.144
506.0,0.1476
507.0,0.1394
508.0,0.1341
509.0,0.1369
510.0,0.1353
511.0,0.1379
512.0,0.1384
513.0,0.13
514.0,0.1281
515.0,0.126
516.0,0.1248
517.0,0.1101
518.0,0.1149
519.0,0.1197
520.0,0.1231
521.0,0.1233
522.0,0.1225
523.0,0.1195
524.0,0.1229
525.0,0.1235
526.0,0.1171
527.0,0.1095
528.0,0.1149
529.0,0.1203
530.0,0.1178
531.0,0.1187
532.0,0.1138
533.0,0.1098
534.0,0.1122
535.0,0.1139
536.0,0.1142
537.0,0.1089
538.0,0.1101
539.0,0.1085
540.0,0.1033
541.0,0.1033
542.0,0.1057
543.0,0.1039
544.0,0.1051
545.0,0.1041
546.0,0.1039
547.0,0.1031
548.0,0.1012
549.0,0.1008
550.0,0.1014
551.0,0.09944
552.0,0.09944
553.0,0.097
554.0,0.09867
555.0,0.09821
556.0,0.09625
557.0,0.09259
558.0,0.09123
559.0,0.08889
560.0,0.08936
561.0,0.08987
562.0,0.08858
563.0,0.09037
564.0,0.08733
565.0,0.08601
566.0,0.08416
567.0,0.08516
568.0,0.08382
569.0,0.08126
570.0,0.08073
571.0,0.07972
572.0,0.08106
573.0,0.08141
574.0,0.08068
575.0,0.0787
576.0,0.07748
577.0,0.07784
578.0,0.07622
579.0,0.07608
580.0,0.07709
581.0,0.07702
582.0,0.078
583.0,0.07777
584.0,0.07803
585.0,0.07568
586.0,0.07362
587.0,0.07471
588.0,0.07243
589.0,0.06369
590.0,0.06623
591.0,0.06973
592.0,0.06838
593.0,0.06897
594.0,0.06803
595.0,0.0659
596.0,0.06816
597.0,0.067
598.0,0.06641
599.0,0.06605
600.0,0.06576
601.0,0.06485
602.0,0.06403
603.0,0.06469
604.0,0.06537
605.0,0.06466
606.0,0.06405
607.0,0.06433
608.0,0.06326
609.0,0.063
610.0,0.06221
611.0,0.06221
612.0,0.06169
613.0,0.06057
614.0,0.05941
615.0,0.06037
616.0,0.05807
617.0,0.05765
618.0,0.05955
619.0,0.05863
620.0,0.05868
621.0,0.05841
622.0,0.0574
623.0,0.05619
624.0,0.05491
625.0,0.05452
626.0,0.05505
627.0,0.05535
628.0,0.05119
629.0,0.05335
630.0,0.05182
631.0,0.05276
632.0,0.05186
633.0,0.05321
634.0,0.05245
635.0,0.05298
636.0,0.052
637.0,0.05258
638.0,0.05282
639.0,0.05196
640.0,0.05118
641.0,0.05087
642.0,0.0504
643.0,0.05084
644.0,0.05043
645.0,0.05023
646.0,0.04876
647.0,0.04788
648.0,0.04763
649.0,0.04647
650.0,0.04651
651.0,0.04828
652.0,0.04592
653.0,0.04715
654.0,0.04639
655.0,0.04437
656.0,0.03914
657.0,0.04001
658.0,0.04465
659.0,0.04476
660.0,0.0447
661.0,0.04478
662.0,0.04465
663.0,0.04357
664.0,0.04388
665.0,0.04369
666.0,0.0435
667.0,0.04325
668.0,0.04307
669.0,0.04351
670.0,0.04309
671.0,0.04287
672.0,0.04233
673.0,0.0428
674.0,0.04242
675.0,0.04181
676.0,0.04189
677.0,0.04129
678.0,0.04123
679.0,0.04037
680.0,0.04049
681.0,0.04003
682.0,0.03978
683.0,0.0395
684.0,0.03909
685.0,0.03922
686.0,0.0388
687.0,0.02493
688.0,0.0294
689.0,0.02936
690.0,0.03075
691.0,0.03234
692.0,0.03348
693.0,0.03302
694.0,0.03252
695.0,0.03379
696.0,0.03365
697.0,0.03577
698.0,0.03505
699.0,0.03392
700.0,0.03334
701.0,0.03284
702.0,0.03295
703.0,0.03284
704.0,0.03378
705.0,0.03366
706.0,0.03349
707.0,0.03337
708.0,0.03327
709.0,0.03318
710.0,0.03299
711.0,0.03285
712.0,0.03265
713.0,0.03215
714.0,0.03209
715.0,0.03088
716.0,0.03075
717.0,0.02619
718.0,0.02374
719.0,0.02145
720.0,0.02248
721.0,0.02494
722.0,0.02882
723.0,0.02646
724.0,0.02348
725.0,0.02299
726.0,0.02408
727.0,0.02427
728.0,0.02262
729.0,0.02346
730.0,0.02483
731.0,0.02354
732.0,0.02522
733.0,0.02672
734.0,0.02725
735.0,0.02655
736.0,0.0264
737.0,0.02637
738.0,0.02672
739.0,0.02605
740.0,0.02662
741.0,0.02624
742.0,0.02615
743.0,0.02668
744.0,0.02646
745.0,0.02635
746.0,0.02634
747.0,0.02628
748.0,0.02608
749.0,0.02565
750.0,0.02552
751.0,0.02515
752.0,0.02514
753.0,0.02514
754.0,0.02506
755.0,0.02481
756.0,0.02469
757.0,0.02461
758.0,0.02419
759.0,0.02355
760.0,0.003473
761.0,0.00177
762.0,0.01126
763.0,0.005341
764.0,0.008194
765.0,0.01109
766.0,0.01381
767.0,0.01763
768.0,0.0205
769.0,0.0209
770.0,0.02158
771.0,0.02168
772.0,0.02163
773.0,0.02167
774.0,0.02146
775.0,0.0212
776.0,0.02136
777.0,0.02098
778.0,0.02074
779.0,0.02065
780.0,0.02044
781.0,0.02037
782.0,0.0204
783.0,0.01995
784.0,0.01996
785.0,0.01972
786.0,0.01984
787.0,0.01938
788.0,0.01904
789.0,0.01893
790.0,0.01829
791.0,0.01841
792.0,0.01819
793.0,0.0178
794.0,0.01807
795.0,0.01828
796.0,0.01757
797.0,0.01753
798.0,0.01802
799.0,0.01781
800.0,0.01739
801.0,0.01725
802.0,0.01712
803.0,0.01691
804.0,0.01686
805.0,0.01674
806.0,0.01716
807.0,0.01686
808.0,0.0168
809.0,0.0164
810.0,0.01617
811.0,0.01611
812.0,0.01552
813.0,0.01509
814.0,0.01303
815.0,0.01288
816.0,0.01181
817.0,0.012
818.0,0.01148
819.0,0.01296
820.0,0.01207
821.0,0.01433
822.0,0.0138
823.0,0.008904
824.0,0.01323
825.0,0.01379
826.0,0.01313
827.0,0.0139
828.0,0.0115
829.0,0.01289
830.0,0.01265
831.0,0.01265
832.0,0.01215
833.0,0.01305
834.0,0.01247
835.0,0.01377
836.0,0.01305
837.0,0.01369
838.0,0.01318
839.0,0.01337
840.0,0.01361
841.0,0.01334
842.0,0.01333
843.0,0.01328
844.0,0.01303
845.0,0.01342
846.0,0.01331
847.0,0.01301
848.0,0.01286
849.0,0.01244
850.0,0.01187
851.0,0.0125
852.0,0.01236
853.0,0.01184
854.0,0.01018
855.0,0.01114
856.0,0.01212
857.0,0.01235
858.0,0.01221
859.0,0.01217
860.0,0.01214
861.0,0.01202
862.0,0.01216
863.0,0.0124
864.0,0.01173
865.0,0.01158
866.0,0.01037
867.0,0.01078
868.0,0.01168
869.0,0.01139
870.0,0.01167
871.0,0.01146
872.0,0.01137
873.0,0.0113
874.0,0.01112
875.0,0.01084
876.0,0.01091
877.0,0.01097
878.0,0.01104
879.0,0.01083
880.0,0.01055
881.0,0.01035
882.0,0.01053
883.0,0.01052
884.0,0.01043
885.0,0.01046
886.0,0.009914
887.0,0.00999
888.0,0.01009
889.0,0.01017
890.0,0.01003
891.0,0.009977
892.0,0.009636
893.0,0.009262
894.0,0.008848
895.0,0.008262
896.0,0.007656
897.0,0.006419
898.0,0.007064
899.0,0.005141
900.0,0.007223
901.0,0.005436
902.0,0.006485
903.0,0.006504
904.0,0.008424
905.0,0.00806
906.0,0.007462
907.0,0.00585
908.0,0.005976
909.0,0.006544
910.0,0.005647
911.0,0.006052
912.0,0.006345
913.0,0.005663
914.0,0.00559
915.0,0.006124
916.0,0.005023
917.0,0.006606
918.0,0.005141
919.0,0.006676
920.0,0.006729
921.0,0.007052
922.0,0.006178
923.0,0.006756
924.0,0.006304
925.0,0.006117
926.0,0.006187
927.0,0.006988
928.0,0.004874
929.0,0.004383
930.0,0.003309
931.0,0.003096
932.0,0.002128
933.0,0.001679
934.0,0.0008596
935.0,0.001709
936.0,0.001009
937.0,0.001019
938.0,0.001277
939.0,0.002899
940.0,0.003574
941.0,0.002594
942.0,0.003044
943.0,0.001878
944.0,0.001984
945.0,0.00263
946.0,0.001222
947.0,0.002621
948.0,0.001837
949.0,0.003637
950.0,0.0008537
951.0,0.00355
952.0,0.001738
953.0,0.002317
954.0,0.002927
955.0,0.002345
956.0,0.002241
957.0,0.001712
958.0,0.003313
959.0,0.002534
960.0,0.002884
961.0,0.003277
962.0,0.003065
963.0,0.003601
964.0,0.00324
965.0,0.003559
966.0,0.003551
967.0,0.003514
968.0,0.004924
969.0,0.005167
970.0,0.004657
971.0,0.005437
972.0,0.005136
973.0,0.00436
974.0,0.004093
975.0,0.004248
976.0,0.003989
977.0,0.004622
978.0,0.004337
979.0,0.004567
980.0,0.004226
981.0,0.005201
982.0,0.004918
983.0,0.004676
984.0,0.005336
985.0,0.004848
986.0,0.00541
987.0,0.005267
988.0,0.005234
989.0,0.005343
990.0,0.005168
991.0,0.005312
992.0,0.005325
993.0,0.00517
994.0,0.005287
995.0,0.005264
996.0,0.005216
997.0,0.005205
998.0,0.005161
999.0,0.005124
1000.0,0.005065
1001.0,0.005114
1002.0,0.004935
1003.0,0.004984
1004.0,0.004838
1005.0,0.004649
1006.0,0.004808
1007.0,0.004893
1008.0,0.004844
1009.0,0.004797
1010.0,0.004756
1011.0,0.004796
1012.0,0.004731
1013.0,0.00475
1014.0,0.0047
1015.0,0.00465
1016.0,0.004611
1017.0,0.004604
1018.0,0.004571
1019.0,0.004448
1020.0,0.00451
1021.0,0.004487
1022.0,0.004432
1023.0,0.004463
1024.0,0.004382
1025.0,0.00443
1026.0,0.004392
1027.0,0.004365
1028.0,0.00434
1029.0,0.004273
1030.0,0.004289
1031.0,0.004254
1032.0,0.004226
1033.0,0.004146
1034.0,0.00413
1035.0,0.004127
1036.0,0.004132
1037.0,0.00405
1038.0,0.004053
1039.0,0.004036
1040.0,0.004005
1041.0,0.004005
1042.0,0.003961
1043.0,0.003935
1044.0,0.003934
1045.0,0.003866
1046.0,0.003808
1047.0,0.003828
1048.0,0.003835
1049.0,0.003807
1050.0,0.003775
1051.0,0.003755
1052.0,0.003725
1053.0,0.003682
1054.0,0.003677
1055.0,0.003664
1056.0,0.003637
1057.0,0.003611
1058.0,0.003509
1059.0,0.0035
1060.0,0.003481
1061.0,0.003464
1062.0,0.003468
1063.0,0.003421
1064.0,0.00345
1065.0,0.003411
1066.0,0.003332
1067.0,0.003362
1068.0,0.003275
1069.0,0.003163
1070.0,0.003256
1071.0,0.0033
1072.0,0.003246
1073.0,0.00319
1074.0,0.003267
1075.0,0.003075
1076.0,0.003239
1077.0,0.003159
1078.0,0.003086
1079.0,0.003155
1080.0,0.003072
1081.0,0.002961
1082.0,0.003012
1083.0,0.003012
1084.0,0.002913
1085.0,0.00303
1086.0,0.002715
1087.0,0.002826
1088.0,0.002951
1089.0,0.002834
1090.0,0.002744
1091.0,0.002904
1092.0,0.00289
1093.0,0.002384
1094.0,0.00262
1095.0,0.002484
1096.0,0.002351
1097.0,0.002776
1098.0,0.002296
1099.0,0.002395
1100.0,0.002187
1101.0,0.002217
1102.0,0.002098
1103.0,0.00206
1104.0,0.002057
1105.0,0.002284
1106.0,0.001663
1107.0,0.002137
1108.0,0.001753
1109.0,0.001751
1110.0,0.002092
1111.0,0.001325
1112.0,0.00172
1113.0,0.001014
1114.0,0.001148
1115.0,0.0009217
1116.0,0.0007096
1117.0,0.0002292
1118.0,0.0007765
1119.0,0.0003504
1120.0,0.000452
1121.0,0.0006205
1122.0,0.0002335
1123.0,0.0003986
1124.0,0.0003288
1125.0,0.0004431
1126.0,0.0001362
1127.0,0.000503
1128.0,0.000281
1129.0,0.0002996
1130.0,0.0001874
1131.0,0.001036
1132.0,0.0007792
1133.0,0.0004619
1134.0,0.000101
1135.0,3.544e-05
1136.0,0.0003716
1137.0,0.0009954
1138.0,0.0006631
1139.0,0.001048
1140.0,0.000849
1141.0,0.0006193
1142.0,0.0007244
1143.0,0.001083
1144.0,0.0003247
1145.0,0.0004256
1146.0,0.0004616
1147.0,0.000143
1148.0,0.0009
1149.0,0.0006919
1150.0,0.0003451
1151.0,0.0006285
1152.0,0.0007965
1153.0,0.0007697
1154.0,0.0003985
1155.0,0.001044
1156.0,0.0009212
1157.0,0.001049
1158.0,0.001033
1159.0,0.001129
1160.0,0.0009365
1161.0,0.001193
1162.0,0.00119
1163.0,0.001685
1164.0,0.001406
1165.0,0.001309
1166.0,0.001294
1167.0,0.001423
1168.0,0.001437
1169.0,0.001477
1170.0,0.001617
1171.0,0.001562
1172.0,0.00159
1173.0,0.001596
1174.0,0.001077
1175.0,0.001549
1176.0,0.001717
1177.0,0.001633
1178.0,0.001168
1179.0,0.001715
1180.0,0.001497
1181.0,0.00155
1182.0,0.001006
1183.0,0.001522
1184.0,0.001399
1185.0,0.001337
1186.0,0.001623
1187.0,0.001529
1188.0,0.001011
1189.0,0.001407
1190.0,0.001561
1191.0,0.001466
1192.0,0.001576
1193.0,0.001495
1194.0,0.001545
1195.0,0.001448
1196.0,0.001382
1197.0,0.001541
1198.0,0.001388
1199.0,0.001152
1200.0,0.001449
1201.0,0.001385
1202.0,0.001372
1203.0,0.001366
1204.0,0.00116
1205.0,0.001399
1206.0,0.001566
1207.0,0.001352
1208.0,0.001334
1209.0,0.001357
1210.0,0.001417
1211.0,0.001335
1212.0,0.001313
1213.0,0.00148
1214.0,0.001341
1215.0,0.001307
1216.0,0.00146
1217.0,0.001412
1218.0,0.001439
1219.0,0.001415
1220.0,0.001431
1221.0,0.001444
1222.0,0.001397
1223.0,0.001378
1224.0,0.001364
1225.0,0.001416
1226.0,0.001423
1227.0,0.001297
1228.0,0.001423
1229.0,0.00141
1230.0,0.001379
1231.0,0.00142
1232.0,0.001407
1233.0,0.001347
1234.0,0.001406
1235.0,0.001392
1236.0,0.001398
1237.0,0.001372
1238.0,0.001385
1239.0,0.001362
1240.0,0.001363
1241.0,0.001351
1242.0,0.001345
1243.0,0.001329
1244.0,0.001334
1245.0,0.001335
1246.0,0.001323
1247.0,0.001314
1248.0,0.001308
1249.0,0.001308
1250.0,0.001296
1251.0,0.001274
1252.0,0.001271
1253.0,0.001255
1254.0,0.001237
1255.0,0.001257
1256.0,0.001214
1257.0,0.001203
1258.0,0.001225
1259.0,0.00117
1260.0,0.001174
1261.0,0.001097
1262.0,0.001057
1263.0,0.001056
1264.0,0.0009632
1265.0,0.001044
1266.0,0.0009961
1267.0,0.001014
1268.0,0.000953
1269.0,0.0005551
1270.0,0.001001
1271.0,0.001065
1272.0,0.001066
1273.0,0.001051
1274.0,0.001052
1275.0,0.001065
1276.0,0.001073
1277.0,0.001078
1278.0,0.001099
1279.0,0.001085
1280.0,0.001068
1281.0,0.001017
1282.0,0.0009793
1283.0,0.001051
1284.0,0.001072
1285.0,0.001076
1286.0,0.001089
1287.0,0.001066
1288.0,0.001063
1289.0,0.001021
1290.0,0.001047
1291.0,0.001059
1292.0,0.0009826
1293.0,0.001029
1294.0,0.001018
1295.0,0.001009
1296.0,0.000954
1297.0,0.0008933
1298.0,0.0009689
1299.0,0.001012
1300.0,0.0008334
1301.0,0.0008611
1302.0,0.000955
1303.0,0.000815
1304.0,0.0006775
1305.0,0.0009233
1306.0,0.0009211
1307.0,0.0006866
1308.0,0.0008025
1309.0,0.0009053
1310.0,0.0006659
1311.0,0.0007585
1312.0,0.0007363
1313.0,0.0007166
1314.0,0.0006271
1315.0,0.0006201
1316.0,0.0007355
1317.0,0.0006876
1318.0,0.0007553
1319.0,0.000567
1320.0,0.0005438
1321.0,0.0006478
1322.0,0.0006539
1323.0,0.0004701
1324.0,0.000546
1325.0,0.0007035
1326.0,0.0005885
1327.0,0.0005554
1328.0,0.000467
1329.0,0.0003366
1330.0,0.0004539
1331.0,0.0002546
1332.0,0.000263
1333.0,0.0003829
1334.0,0.0003135
1335.0,0.000452
1336.0,0.000344
1337.0,0.0002982
1338.0,0.0003258
1339.0,0.0003235
1340.0,0.0003112
1341.0,0.0003031
1342.0,0.0003197
1343.0,0.0002059
1344.0,0.0001148
1345.0,0.0001728
1346.0,7.962e-05
1347.0,8.097e-05
1348.0,4.413e-06
1349.0,1.684e-05
1350.0,1.742e-05
1351.0,3.972e-06
1352.0,1.035e-06
1353.0,5.073e-08
1354.0,1.76e-07
1355.0,1.388e-09
1356.0,2.447e-08
1357.0,3.726e-08
1358.0,1.63e-09
1359.0,2.05e-10
1360.0,7.416e-10
1361.0,8.276e-13
1362.0,2.264e-15
1363.0,9.978e-10
1364.0,4.115e-10
1365.0,7.903e-16
1366.0,4.336e-09
1367.0,1.766e-09
1368.0,6.102e-18
1369.0,1.515e-10
1370.0,7.459e-11
1371.0,4.225e-12
1372.0,9.568e-10
1373.0,1.942e-08
1374.0,9.087e-08
1375.0,1.659e-07
1376.0,1.483e-07
1377.0,6.726e-08
1378.0,6.77e-07
1379.0,2.795e-08
1380.0,4.029e-08
1381.0,1.038e-09
1382.0,8.384e-10
1383.0,1.251e-11
1384.0,1.641e-10
1385.0,7.855e-10
1386.0,7.392e-10
1387.0,9.1e-08
1388.0,1.759e-09
1389.0,3.11e-07
1390.0,2.663e-07
1391.0,1.762e-07
1392.0,1.121e-08
1393.0,5.987e-08
1394.0,3.08e-08
1395.0,2.231e-10
1396.0,1.077e-12
1397.0,2.346e-08
1398.0,7.193e-07
1399.0,4.508e-07
1400.0,4.605e-13
1401.0,1.911e-12
1402.0,1.267e-06
1403.0,1.6e-06
1404.0,4.735e-07
1405.0,1.056e-10
1406.0,1.252e-06
1407.0,1.06e-07
1408.0,1.013e-06
1409.0,3.315e-07
1410.0,2.641e-07
1411.0,1.369e-06
1412.0,1.858e-06
1413.0,2.138e-05
1414.0,2.055e-07
1415.0,9.748e-08
1416.0,3.628e-05
1417.0,9.968e-06
1418.0,1.138e-05
1419.0,1.63e-06
1420.0,6.743e-06
1421.0,7.305e-06
1422.0,4.771e-05
1423.0,8.196e-06
1424.0,1.59e-05
1425.0,2.389e-05
1426.0,2.748e-05
1427.0,5.347e-05
1428.0,3.263e-06
1429.0,3.853e-05
1430.0,6.935e-05
1431.0,7.684e-05
1432.0,2.514e-06
1433.0,4.622e-05
1434.0,2.21e-05
1435.0,2.158e-05
1436.0,4.45e-05
1437.0,3.324e-05
1438.0,1.3e-05
1439.0,6.215e-05
1440.0,4.53e-05
1441.0,3.316e-05
1442.0,3.708e-05
1443.0,4.794e-05
1444.0,6.878e-05
1445.0,5.173e-05
1446.0,2.155e-05
1447.0,3.516e-05
1448.0,0.0001395
1449.0,0.0001181
1450.0,2.53e-05
1451.0,9.442e-06
1452.0,6.596e-05
1453.0,8.939e-05
1454.0,0.0001672
1455.0,7.07e-05
1456.0,9.754e-05
1457.0,0.000137
1458.0,0.0001663
1459.0,0.0002007
1460.0,9.489e-05
1461.0,9.852e-05
1462.0,0.0001531
1463.0,4.258e-05
1464.0,0.0001864
1465.0,0.0001046
1466.0,6.699e-05
1467.0,3.245e-05
1468.0,8.062e-05
1469.0,0.0001022
1470.0,4.605e-05
1471.0,1.512e-05
1472.0,4.364e-05
1473.0,7.047e-05
1474.0,0.0001085
1475.0,0.0002261
1476.0,6.986e-05
1477.0,7.003e-05
1478.0,6.463e-05
1479.0,0.0001354
1480.0,5.901e-05
1481.0,0.0001278
1482.0,5.746e-05
1483.0,0.0001723
1484.0,0.000159
1485.0,0.0001385
1486.0,0.0001356
1487.0,5.585e-05
1488.0,0.0001062
1489.0,0.0002294
1490.0,0.0002086
1491.0,0.000241
1492.0,0.0001919
1493.0,0.0002144
1494.0,0.0002459
1495.0,0.0002142
1496.0,0.0001984
1497.0,0.0002855
1498.0,0.0002249
1499.0,0.000269
1500.0,0.0003153
1501.0,0.000334
1502.0,0.0002754
1503.0,0.0002282
1504.0,0.000177
1505.0,0.0002184
1506.0,0.0003304
1507.0,0.0003151
1508.0,0.0002977
1509.0,0.0002179
1510.0,0.0003404
1511.0,0.0003273
1512.0,0.0003235
1513.0,0.0002931
1514.0,0.0002706
1515.0,0.0003308
1516.0,0.0003142
1517.0,0.0003057
1518.0,0.0003037
1519.0,0.0002957
1520.0,0.0003206
1521.0,0.0003436
1522.0,0.0003244
1523.0,0.0003471
1524.0,0.0003355
1525.0,0.0003182
1526.0,0.0003227
1527.0,0.0003187
1528.0,0.000341
1529.0,0.0003225
1530.0,0.0003157
1531.0,0.0003239
1532.0,0.000337
1533.0,0.0003364
1534.0,0.0003296
1535.0,0.0003268
1536.0,0.0003325
1537.0,0.0003242
1538.0,0.0003272
1539.0,0.0003207
1540.0,0.0003211
1541.0,0.0003225
1542.0,0.0003181
1543.0,0.0003231
1544.0,0.0003184
1545.0,0.000324
1546.0,0.0003181
1547.0,0.000313
1548.0,0.0003123
1549.0,0.0003144
1550.0,0.0003114
1551.0,0.000313
1552.0,0.0003097
1553.0,0.0003071
1554.0,0.0003037
1555.0,0.0003038
1556.0,0.0003028
1557.0,0.0003057
1558.0,0.0003033
1559.0,0.0003007
1560.0,0.0003021
1561.0,0.0003035
1562.0,0.000299
1563.0,0.0002959
1564.0,0.0002966
1565.0,0.0002965
1566.0,0.0002919
1567.0,0.0002918
1568.0,0.0002882
1569.0,0.0002894
1570.0,0.0002914
1571.0,0.0002931
1572.0,0.0002907
1573.0,0.0002881
1574.0,0.0002773
1575.0,0.0002733
1576.0,0.0002685
1577.0,0.0002609
1578.0,0.0002734
1579.0,0.0002752
1580.0,0.000277
1581.0,0.0002723
1582.0,0.0002662
1583.0,0.0002669
1584.0,0.0002712
1585.0,0.0002735
1586.0,0.0002697
1587.0,0.0002647
1588.0,0.0002567
1589.0,0.0002482
1590.0,0.0002532
1591.0,0.0002589
1592.0,0.0002659
1593.0,0.0002695
1594.0,0.0002683
1595.0,0.0002642
1596.0,0.0002558
1597.0,0.0002617
1598.0,0.0002648
1599.0,0.0002613
1600.0,0.000259
1601.0,0.0002547
1602.0,0.0002548
1603.0,0.0002567
1604.0,0.0002541
1605.0,0.0002534
1606.0,0.0002499
1607.0,0.0002515
1608.0,0.0002507
1609.0,0.0002434
1610.0,0.0002378
1611.0,0.0002415
1612.0,0.0002437
1613.0,0.0002435
1614.0,0.0002429
1615.0,0.000237
1616.0,0.0002328
1617.0,0.0002368
1618.0,0.0002403
1619.0,0.0002352
1620.0,0.0002298
1621.0,0.0002318
1622.0,0.0002349
1623.0,0.0002377
1624.0,0.0002344
1625.0,0.0002329
1626.0,0.0002328
1627.0,0.0002341
1628.0,0.0002328
1629.0,0.0002303
1630.0,0.0002283
1631.0,0.0002264
1632.0,0.0002254
1633.0,0.0002179
1634.0,0.0002225
1635.0,0.0002186
1636.0,0.0002164
1637.0,0.0002136
1638.0,0.0002002
1639.0,0.000208
1640.0,0.0001981
1641.0,0.0002054
1642.0,0.000209
1643.0,0.0001963
1644.0,0.000208
1645.0,0.0002013
1646.0,0.0001957
1647.0,0.0002097
1648.0,0.0001941
1649.0,0.0002036
1650.0,0.0002046
1651.0,0.0001886
1652.0,0.0002015
1653.0,0.0002029
1654.0,0.0001911
1655.0,0.0002019
1656.0,0.0001979
1657.0,0.000199
1658.0,0.0002012
1659.0,0.0001991
1660.0,0.0002003
1661.0,0.0001987
1662.0,0.0001926
1663.0,0.0001968
1664.0,0.0001945
1665.0,0.0001827
1666.0,0.000147
1667.0,0.0001799
1668.0,0.0001866
1669.0,0.0001874
1670.0,0.0001903
1671.0,0.0001842
1672.0,0.0001816
1673.0,0.0001855
1674.0,0.0001808
1675.0,0.0001775
1676.0,0.0001784
1677.0,0.0001776
1678.0,0.0001718
1679.0,0.0001754
1680.0,0.0001678
1681.0,0.0001621
1682.0,0.000171
1683.0,0.0001742
1684.0,0.0001601
1685.0,0.0001753
1686.0,0.0001744
1687.0,0.000167
1688.0,0.0001725
1689.0,0.0001701
1690.0,0.000169
1691.0,0.0001526
1692.0,0.0001674
1693.0,0.0001721
1694.0,0.0001648
1695.0,0.0001693
1696.0,0.0001689
1697.0,0.0001398
1698.0,0.0001665
1699.0,0.0001637
1700.0,0.0001587
1702.0,0.0001611
1705.0,0.0001547
1710.0,0.0001444
1715.0,0.0001429
1720.0,0.0001399
1725.0,0.0001285
1730.0,0.0001255
1735.0,0.0001156
1740.0,0.000116
1745.0,0.0001068
1750.0,0.0001142
1755.0,0.0001028
1760.0,0.0001071
1765.0,8.447e-05
1770.0,9.042e-05
1775.0,6.976e-05
1780.0,5.802e-05
1785.0,4.161e-05
1790.0,4.877e-05
1795.0,2.195e-05
1800.0,1.446e-05
1805.0,5.393e-06
1810.0,3.392e-06
1815.0,9.348e-07
1820.0,2.246e-07
1825.0,2.95e-07
1830.0,6.792e-10
1835.0,1.029e-09
1840.0,5.975e-12
1845.0,6.422e-10
1850.0,2.894e-10
1855.0,2.758e-11
1860.0,1.589e-09
1865.0,2.218e-09
1870.0,1.204e-14
1875.0,2.175e-14
1880.0,1.177e-08
1885.0,6.246e-09
1890.0,3.475e-08
1895.0,2.002e-08
1900.0,8.409e-11
1905.0,5.726e-11
1910.0,2.792e-09
1915.0,2.717e-09
1920.0,7.309e-08
1925.0,1.738e-07
1930.0,9.942e-08
1935.0,7.949e-07
1940.0,7.863e-07
1945.0,3.473e-06
1950.0,7.055e-06
1955.0,6.275e-06
1960.0,1.156e-05
1965.0,1.744e-05
1970.0,2.534e-05
1975.0,2.9e-05
1980.0,2.903e-05
1985.0,3.133e-05
1990.0,3.227e-05
1995.0,3.407e-05
2000.0,3.576e-05
2005.0,2.937e-05
2010.0,4.319e-05
2015.0,3.29e-05
2020.0,3.516e-05
2025.0,3.817e-05
2030.0,3.447e-05
2035.0,3.747e-05
2040.0,3.52e-05
2045.0,3.605e-05
2050.0,3.628e-05
2055.0,3.435e-05
2060.0,3.285e-05
2065.0,3.316e-05
2070.0,3.242e-05
2075.0,3.29e-05
2080.0,3.172e-05
2085.0,3.125e-05
2090.0,3.133e-05
2095.0,3.007e-05
2100.0,2.766e-05
2105.0,2.982e-05
2110.0,2.828e-05
2115.0,2.878e-05
2120.0,2.671e-05
2125.0,2.691e-05
2130.0,2.705e-05
2135.0,2.704e-05
2140.0,2.703e-05
2145.0,2.651e-05
2150.0,2.452e-05
2155.0,2.432e-05
2160.0,2.385e-05
2165.0,2.148e-05
2170.0,2.275e-05
2175.0,2.196e-05
2180.0,2.241e-05
2185.0,1.971e-05
2190.0,2.122e-05
2195.0,2.083e-05
2200.0,1.802e-05
2205.0,1.89e-05
2210.0,2.045e-05
2215.0,1.93e-05
2220.0,1.958e-05
2225.0,1.877e-05
2230.0,1.87e-05
2235.0,1.802e-05
2240.0,1.764e-05
2245.0,1.671e-05
2250.0,1.689e-05
2255.0,1.551e-05
2260.0,1.506e-05
2265.0,1.532e-05
2270.0,1.419e-05
2275.0,1.383e-05
2280.0,1.444e-05
2285.0,1.332e-05
2290.0,1.321e-05
2295.0,1.273e-05
2300.0,1.191e-05
2305.0,1.191e-05
2310.0,1.309e-05
2315.0,1.15e-05
2320.0,9.866e-06
2325.0,1.106e-05
2330.0,1.098e-05
2335.0,1.119e-05
2340.0,8.33e-06
2345.0,9.474e-06
2350.0,7.245e-06
2355.0,8.533e-06
2360.0,9.048e-06
2365.0,8.84e-06
2370.0,4.835e-06
2375.0,7.58e-06
2380.0,7.153e-06
2385.0,4.886e-06
2390.0,5.885e-06
2395.0,6.518e-06
2400.0,7.16e-06
2405.0,5.194e-06
2410.0,5.164e-06
2415.0,4.009e-06
2420.0,3.832e-06
2425.0,4.899e-06
2430.0,6.89e-06
2435.0,1.906e-06
2440.0,6.549e-06
2445.0,2.736e-06
2450.0,1.662e-06
2455.0,3.321e-06
2460.0,4.579e-06
2465.0,3.098e-06
2470.0,1.985e-06
2475.0,1.918e-06
2480.0,8.531e-07
2485.0,5.45e-07
2490.0,3.068e-07
2495.0,2.638e-07
2500.0,6.811e-07
2505.0,1.3e-07
2510.0,1.937e-07
2515.0,3.955e-08
2520.0,2.219e-08
2525.0,2.47e-09
2530.0,1.702e-11
2535.0,3.76e-12
2540.0,8.925e-12
2545.0,6.91e-16
2550.0,2.802e-18
2555.0,1.345e-14
2560.0,4.036e-16
2565.0,9.035e-20
2570.0,2.69e-24
2575.0,1.702e-34
2580.0,1.774e-28
2585.0,3.709e-42
2590.0,2.314e-38
2595.0,4.503e-40
2600.0,3.706e-35
2605.0,4.0960000000000006e-42
2610.0,1.41e-41
2615.0,1.4009999999999999e-45
2620.0,1.2420000000000001e-35
2625.0,2.276e-35
2630.0,0.0
2635.0,1.185e-21
2640.0,2.5649999999999997e-22
2645.0,1.118e-24
2650.0,1.114e-25
2655.0,1.339e-34
2660.0,1.127e-31
2665.0,1.121e-44
2670.0,0.0
2675.0,5.464999999999999e-44
2680.0,2.286e-30
2685.0,2.184e-31
2690.0,8.172e-31
2695.0,3.205e-33
2700.0,9.335999999999999e-29
2705.0,2.648e-26
2710.0,2.1080000000000002e-31
2715.0,2.6619999999999997e-29
2720.0,0.0
2725.0,5.962e-27
2730.0,1.738e-24
2735.0,1.9820000000000002e-26
2740.0,3.58e-32
2745.0,4.616e-27
2750.0,2.5870000000000005e-26
2755.0,4.163e-28
2760.0,6.235999999999999e-23
2765.0,2.9269999999999996e-29
2770.0,1.4380000000000002e-26
2775.0,1.776e-23
2780.0,8.267e-21
2785.0,3.104e-20
2790.0,7.077e-18
2795.0,1.557e-18
2800.0,4.97e-15
2805.0,9.293e-17
2810.0,3.726e-13
2815.0,1.111e-13
2820.0,1.358e-15
2825.0,1.192e-11
2830.0,2.593e-10
2835.0,3.568e-15
2840.0,7.636e-12
2845.0,2.648e-09
2850.0,4.576e-11
2855.0,1.827e-11
2860.0,9.509e-10
2865.0,7.023e-09
2870.0,1.777e-10
2875.0,1.712e-08
2880.0,1.077e-08
2885.0,1.777e-08
2890.0,7.54e-09
2895.0,1.293e-07
2900.0,3.59e-08
2905.0,4.144e-09
2910.0,1.319e-07
2915.0,5.583e-08
2920.0,1.389e-07
2925.0,4.936e-08
2930.0,3.007e-07
2935.0,3.319e-07
2940.0,7.385e-08
2945.0,6.34e-08
2950.0,2.573e-07
2955.0,1.141e-07
2960.0,2.272e-07
2965.0,3.857e-07
2970.0,1.495e-08
2975.0,3.794e-08
2980.0,5.913e-08
2985.0,3.505e-07
2990.0,5.328e-07
2995.0,2.011e-07
3000.0,3.838e-07
3005.0,1.3e-07
3010.0,3.359e-07
3015.0,2.601e-07
3020.0,2.33e-08
3025.0,3.594e-07
3030.0,2.829e-07
3035.0,1.07e-07
3040.0,8.352e-08
3045.0,1.802e-07
3050.0,4.056e-08
3055.0,9.889e-09
3060.0,2.817e-07
3065.0,1.186e-07
3070.0,6.649e-08
3075.0,2.63e-07
3080.0,1.522e-07
3085.0,6.692e-08
3090.0,9.12e-08
3095.0,2.228e-08
3100.0,1.833e-07
3105.0,3.4e-08
3110.0,2.846e-08
3115.0,8.594e-08
3120.0,4.28e-07
3125.0,1.24e-07
3130.0,2.482e-07
3135.0,5.03e-07
3140.0,1.316e-07
3145.0,1.291e-07
3150.0,2.752e-07
3155.0,2.31e-07
3160.0,3.866e-07
3165.0,6.126e-07
3170.0,5.421e-07
3175.0,3.788e-07
3180.0,4.484e-07
3185.0,3.126e-07
3190.0,1.62e-07
3195.0,8.957e-08
3200.0,1.245e-08
3205.0,8.124e-09
3210.0,3.372e-09
3215.0,1.38e-08
3220.0,4.892e-08
3225.0,5.545e-09
3230.0,9.233e-09
3235.0,2.686e-07
3240.0,1.206e-07
3245.0,2.246e-08
3250.0,8.403e-08
3255.0,3.703e-07
3260.0,3.565e-08
3265.0,7.792e-08
3270.0,3.636e-08
3275.0,2.248e-07
3280.0,9.429e-08
3285.0,4.219e-07
3290.0,3.154e-07
3295.0,3.741e-08
3300.0,5.589e-08
3305.0,1.301e-07
3310.0,1.236e-07
3315.0,1.72e-10
3320.0,1.087e-09
3325.0,1.037e-07
3330.0,1.582e-07
3335.0,3.117e-07
3340.0,1.121e-07
3345.0,1.088e-07
3350.0,2.758e-07
3355.0,1.098e-07
3360.0,1.695e-07
3365.0,2.401e-07
3370.0,1.149e-07
3375.0,2.82e-07
3380.0,1.514e-07
3385.0,2.413e-07
3390.0,3.185e-07
3395.0,3.08e-07
3400.0,4.172e-07
3405.0,1.252e-07
3410.0,2.214e-07
3415.0,2.152e-07
3420.0,4.332e-07
3425.0,3.087e-07
3430.0,2.599e-07
3435.0,3.72e-07
3440.0,2.369e-07
3445.0,3.547e-07
3450.0,3.465e-07
3455.0,2.459e-07
3460.0,3.949e-07
3465.0,2.915e-07
3470.0,3.823e-07
3475.0,3.313e-07
3480.0,3.394e-07
3485.0,3.697e-07
3490.0,3.079e-07
3495.0,3.715e-07
3500.0,3.587e-07
3505.0,3.535e-07
3510.0,3.58e-07
3515.0,3.416e-07
3520.0,3.651e-07
3525.0,3.395e-07
3530.0,3.291e-07
3535.0,2.683e-07
3540.0,2.537e-07
3545.0,2.693e-07
3550.0,3.044e-07
3555.0,2.543e-07
3560.0,3.117e-07
3565.0,3.112e-07
3570.0,2.325e-07
3575.0,2.404e-07
3580.0,2.908e-07
3585.0,2.529e-07
3590.0,2.642e-07
3595.0,2.7e-07
3600.0,2.889e-07
3605.0,2.883e-07
3610.0,2.603e-07
3615.0,2.604e-07
3620.0,3.263e-07
3625.0,2.778e-07
3630.0,2.698e-07
3635.0,2.781e-07
3640.0,3.145e-07
3645.0,2.821e-07
3650.0,2.675e-07
3655.0,2.929e-07
3660.0,2.898e-07
3665.0,2.662e-07
3670.0,1.981e-07
3675.0,1.106e-07
3680.0,2.06e-07
3685.0,2.379e-07
3690.0,2.458e-07
3695.0,2.567e-07
3700.0,2.79e-07
3705.0,2.734e-07
3710.0,2.321e-07
3715.0,2.277e-07
3720.0,2.615e-07
3725.0,2.685e-07
3730.0,2.271e-07
3735.0,2.047e-07
3740.0,2.107e-07
3745.0,2.506e-07
3750.0,2.238e-07
3755.0,2.151e-07
3760.0,2.109e-07
3765.0,2.017e-07
3770.0,2.177e-07
3775.0,2.14e-07
3780.0,2.28e-07
3785.0,2.053e-07
3790.0,1.774e-07
3795.0,2.062e-07
3800.0,2.345e-07
3805.0,2.175e-07
3810.0,1.884e-07
3815.0,1.743e-07
3820.0,2.252e-07
3825.0,2.19e-07
3830.0,2.221e-07
3835.0,1.695e-07
3840.0,2.04e-07
3845.0,1.975e-07
3850.0,1.982e-07
3855.0,1.878e-07
3860.0,1.729e-07
3865.0,1.739e-07
3870.0,1.544e-07
3875.0,1.378e-07
3880.0,1.319e-07
3885.0,1.369e-07
3890.0,1.387e-07
3895.0,1.54e-07
3900.0,1.649e-07
3905.0,1.637e-07
3910.0,1.433e-07
3915.0,1.386e-07
3920.0,1.38e-07
3925.0,1.348e-07
3930.0,1.396e-07
3935.0,1.463e-07
3940.0,1.478e-07
3945.0,1.502e-07
3950.0,1.526e-07
3955.0,1.538e-07
3960.0,1.548e-07
3965.0,1.558e-07
3970.0,1.532e-07
3975.0,1.481e-07
3980.0,1.452e-07
3985.0,1.452e-07
3990.0,1.426e-07
3995.0,1.384e-07
4000.0,1.32e-07
