interpolation:linear
wavelength,value
280.0,3.8459999999999996e-23
280.5,1.332e-21
281.0,7.25e-21
281.5,2.422e-19
282.0,1.984e-18
282.5,4.599e-18
283.0,1.418e-17
283.5,2.289e-17
284.0,3.83e-16
284.5,1.128e-15
285.0,1.342e-15
285.5,6.603e-15
286.0,2.65e-14
286.5,1.2e-13
287.0,3.455e-13
287.5,1.345e-12
288.0,8.195e-12
288.5,2.059e-11
289.0,4.946e-11
289.5,1.396e-10
290.0,3.725e-10
290.5,7.379e-10
291.0,1.543e-09
291.5,4.334e-09
292.0,8.188e-09
292.5,1.101e-08
293.0,2.256e-08
293.5,5.228e-08
294.0,7.856e-08
294.5,1.583e-08
295.0,2.667e-08
295.5,4.106e-08
296.0,7.328e-08
296.5,9.48e-08
297.0,1.202e-07
297.5,2.919e-07
298.0,4.218e-07
298.5,3.965e-07
299.0,8.172e-07
299.5,1.203e-06
300.0,1.235e-06
300.5,1.667e-06
301.0,2.688e-06
301.5,3.856e-06
302.0,3.124e-06
302.5,5.1e-06
303.0,8.849e-06
303.5,1.089e-05
304.0,1.01e-05
304.5,1.472e-05
305.0,2.213e-05
305.5,2.555e-05
306.0,2.487e-05
306.5,3.135e-05
307.0,4.841e-05
307.5,6.789e-05
308.0,7.242e-05
308.5,8.834e-05
309.0,7.59e-05
309.5,9.105e-05
310.0,9.445e-05
310.5,0.0001558
311.0,0.000202
311.5,0.0001981
312.0,0.0002159
312.5,0.0002806
313.0,0.0003159
313.5,0.0002964
314.0,0.0004047
314.5,0.0004091
315.0,0.0005511
315.5,0.0004312
316.0,0.000422
316.5,0.0006739
317.0,0.0008351
317.5,0.0008424
318.0,0.0007087
318.5,0.001062
319.0,0.00139
319.5,0.0009682
320.0,0.001143
320.5,0.001742
321.0,0.001869
321.5,0.001827
322.0,0.001593
322.5,0.0014
323.0,0.001587
323.5,0.003954
324.0,0.004798
324.5,0.004406
325.0,0.002044
325.5,0.002932
326.0,0.006804
326.5,0.007814
327.0,0.007357
327.5,0.006687
328.0,0.00502
328.5,0.006475
329.0,0.009369
329.5,0.01126
330.0,0.01084
330.5,0.007479
331.0,0.007258
331.5,0.008223
332.0,0.01038
332.5,0.011
333.0,0.01054
333.5,0.008513
334.0,0.008553
334.5,0.01123
335.0,0.01135
335.5,0.01407
336.0,0.00973
336.5,0.01036
337.0,0.008056
337.5,0.009821
338.0,0.01064
338.5,0.01321
339.0,0.01318
339.5,0.01261
340.0,0.01381
340.5,0.01258
341.0,0.01308
341.5,0.01217
342.0,0.0146
342.5,0.01371
343.0,0.01496
343.5,0.014
344.0,0.009695
344.5,0.01034
345.0,0.01391
345.5,0.01429
346.0,0.0122
346.5,0.01386
347.0,0.01477
347.5,0.01191
348.0,0.0137
348.5,0.01377
349.0,0.0128
349.5,0.01266
350.0,0.01568
350.5,0.01654
351.0,0.01471
351.5,0.01414
352.0,0.01529
352.5,0.012
353.0,0.01517
353.5,0.01626
354.0,0.01691
354.5,0.01715
355.0,0.01707
355.5,0.01544
356.0,0.01618
356.5,0.01382
357.0,0.01141
357.5,0.01398
358.0,0.01109
358.5,0.009482
359.0,0.01325
359.5,0.01684
360.0,0.01787
360.5,0.0143
361.0,0.01306
361.5,0.01505
362.0,0.01302
362.5,0.01803
363.0,0.0162
363.5,0.01492
364.0,0.01825
364.5,0.0156
365.0,0.01588
365.5,0.01994
366.0,0.02114
366.5,0.01987
367.0,0.01936
367.5,0.02009
368.0,0.01758
368.5,0.01773
369.0,0.01916
369.5,0.02043
370.0,0.02178
370.5,0.01691
371.0,0.01807
371.5,0.02261
372.0,0.01501
372.5,0.018
373.0,0.01831
373.5,0.01192
374.0,0.01732
374.5,0.01434
375.0,0.01395
375.5,0.02082
376.0,0.01727
376.5,0.0179
377.0,0.01895
377.5,0.02217
378.0,0.02404
378.5,0.02273
379.0,0.01876
379.5,0.01713
380.0,0.01782
380.5,0.02158
381.0,0.02163
381.5,0.01715
382.0,0.01523
382.5,0.01299
383.0,0.01202
383.5,0.01158
384.0,0.01278
384.5,0.0188
385.0,0.01865
385.5,0.01737
386.0,0.01488
386.5,0.01954
387.0,0.01624
387.5,0.01824
388.0,0.01685
388.5,0.01665
389.0,0.01798
389.5,0.02178
390.0,0.02186
390.5,0.02012
391.0,0.02369
391.5,0.02416
392.0,0.02035
392.5,0.01823
393.0,0.01014
393.5,0.007373
394.0,0.01501
394.5,0.01908
395.0,0.02328
395.5,0.02365
396.0,0.02051
396.5,0.01199
397.0,0.009002
397.5,0.01831
398.0,0.02565
398.5,0.02651
399.0,0.02871
399.5,0.02862
400.0,0.02972
401.0,0.02934
402.0,0.03096
403.0,0.02941
404.0,0.02896
405.0,0.02896
406.0,0.02848
407.0,0.02801
408.0,0.02908
409.0,0.03111
410.0,0.02718
411.0,0.02944
412.0,0.03162
413.0,0.03085
414.0,0.03122
415.0,0.03128
416.0,0.03181
417.0,0.03101
418.0,0.03042
419.0,0.03083
420.0,0.03068
421.0,0.03208
422.0,0.03046
423.0,0.02971
424.0,0.03137
425.0,0.03128
426.0,0.03046
427.0,0.0299
428.0,0.02913
429.0,0.0276
430.0,0.02414
431.0,0.0239
432.0,0.03081
433.0,0.03094
434.0,0.02872
435.0,0.02999
436.0,0.03378
437.0,0.03328
438.0,0.03024
439.0,0.03119
440.0,0.0321
441.0,0.03317
442.0,0.0355
443.0,0.03454
444.0,0.03529
445.0,0.03457
446.0,0.03302
447.0,0.0357
448.0,0.03619
449.0,0.03623
450.0,0.03715
451.0,0.03846
452.0,0.03704
453.0,0.03483
454.0,0.03633
455.0,0.03645
456.0,0.03722
457.0,0.03767
458.0,0.03621
459.0,0.03583
460.0,0.03575
461.0,0.03644
462.0,0.03668
463.0,0.03646
464.0,0.03594
465.0,0.03555
466.0,0.03589
467.0,0.03517
468.0,0.03545
469.0,0.03548
470.0,0.03426
471.0,0.03417
472.0,0.03597
473.0,0.03547
474.0,0.03544
475.0,0.03558
476.0,0.03431
477.0,0.03417
478.0,0.03487
479.0,0.03437
480.0,0.03417
481.0,0.03458
482.0,0.03463
483.0,0.03418
484.0,0.03352
485.0,0.03201
486.0,0.02804
487.0,0.0294
488.0,0.03218
489.0,0.03216
490.0,0.03368
491.0,0.03296
492.0,0.03104
493.0,0.03198
494.0,0.03224
495.0,0.03243
496.0,0.0325
497.0,0.0328
498.0,0.03102
499.0,0.03113
500.0,0.02994
501.0,0.02911
502.0,0.0284
503.0,0.02927
504.0,0.0283
505.0,0.02917
506.0,0.03004
507.0,0.02857
508.0,0.0277
509.0,0.02851
510.0,0.02837
511.0,0.0291
512.0,0.02933
513.0,0.02764
514.0,0.02732
515.0,0.02691
516.0,0.02671
517.0,0.02363
518.0,0.02475
519.0,0.02584
520.0,0.02665
521.0,0.02674
522.0,0.02658
523.0,0.02595
524.0,0.02665
525.0,0.02671
526.0,0.02529
527.0,0.0236
528.0,0.02472
529.0,0.02584
530.0,0.02527
531.0,0.02546
532.0,0.02444
533.0,0.02361
534.0,0.02424
535.0,0.02472
536.0,0.0249
537.0,0.02386
538.0,0.02421
539.0,0.0239
540.0,0.0228
541.0,0.0228
542.0,0.02336
543.0,0.02297
544.0,0.02322
545.0,0.02303
546.0,0.02301
547.0,0.02289
548.0,0.02252
549.0,0.0225
550.0,0.02266
551.0,0.02228
552.0,0.02234
553.0,0.02183
554.0,0.02223
555.0,0.02214
556.0,0.02172
557.0,0.02089
558.0,0.02056
559.0,0.01999
560.0,0.02006
561.0,0.02015
562.0,0.01982
563.0,0.02018
564.0,0.01949
565.0,0.01919
566.0,0.01878
567.0,0.01901
568.0,0.0187
569.0,0.01812
570.0,0.01801
571.0,0.01779
572.0,0.01809
573.0,0.0182
574.0,0.01807
575.0,0.01768
576.0,0.01749
577.0,0.01767
578.0,0.0174
579.0,0.01748
580.0,0.01782
581.0,0.01793
582.0,0.01828
583.0,0.01832
584.0,0.01846
585.0,0.01799
586.0,0.01758
587.0,0.01791
588.0,0.01739
589.0,0.01529
590.0,0.01592
591.0,0.0168
592.0,0.01646
593.0,0.01661
594.0,0.01635
595.0,0.01579
596.0,0.01635
597.0,0.01601
598.0,0.01586
599.0,0.01575
600.0,0.01568
601.0,0.01548
602.0,0.01532
603.0,0.01554
604.0,0.01577
605.0,0.01569
606.0,0.01563
607.0,0.01581
608.0,0.01567
609.0,0.01573
610.0,0.01565
611.0,0.01578
612.0,0.01577
613.0,0.0156
614.0,0.01542
615.0,0.01578
616.0,0.01529
617.0,0.01527
618.0,0.01587
619.0,0.01572
620.0,0.01581
621.0,0.01582
622.0,0.01563
623.0,0.01538
624.0,0.0151
625.0,0.01506
626.0,0.01527
627.0,0.01542
628.0,0.01422
629.0,0.01497
630.0,0.01462
631.0,0.01501
632.0,0.01484
633.0,0.01532
634.0,0.0152
635.0,0.01546
636.0,0.01527
637.0,0.01554
638.0,0.01572
639.0,0.01556
640.0,0.01544
641.0,0.01544
642.0,0.01539
643.0,0.01561
644.0,0.01557
645.0,0.01558
646.0,0.01519
647.0,0.01494
648.0,0.01497
649.0,0.01465
650.0,0.0148
651.0,0.01546
652.0,0.01473
653.0,0.01523
654.0,0.01504
655.0,0.01442
656.0,0.01279
657.0,0.01313
658.0,0.01472
659.0,0.01482
660.0,0.01486
661.0,0.01497
662.0,0.015
663.0,0.01468
664.0,0.01484
665.0,0.01484
666.0,0.01484
667.0,0.01482
668.0,0.01483
669.0,0.01504
670.0,0.01495
671.0,0.01494
672.0,0.0148
673.0,0.01501
674.0,0.01494
675.0,0.01478
676.0,0.01486
677.0,0.0147
678.0,0.01472
679.0,0.01446
680.0,0.01455
681.0,0.01441
682.0,0.01436
683.0,0.01429
684.0,0.01418
685.0,0.01427
686.0,0.01415
687.0,0.009011
688.0,0.01052
689.0,0.01054
690.0,0.01105
691.0,0.01167
692.0,0.01216
693.0,0.01206
694.0,0.01199
695.0,0.01256
696.0,0.01256
697.0,0.01344
698.0,0.01319
699.0,0.01274
700.0,0.01256
701.0,0.01236
702.0,0.01243
703.0,0.01246
704.0,0.01289
705.0,0.01285
706.0,0.01282
707.0,0.0128
708.0,0.01278
709.0,0.01281
710.0,0.01272
711.0,0.01269
712.0,0.01264
713.0,0.01243
714.0,0.01245
715.0,0.01197
716.0,0.01192
717.0,0.01007
718.0,0.009223
719.0,0.008421
720.0,0.008775
721.0,0.009745
722.0,0.01124
723.0,0.01038
724.0,0.009261
725.0,0.009074
726.0,0.009464
727.0,0.009628
728.0,0.008958
729.0,0.009324
730.0,0.009814
731.0,0.009342
732.0,0.01005
733.0,0.01068
734.0,0.01093
735.0,0.01065
736.0,0.01057
737.0,0.01058
738.0,0.01081
739.0,0.01056
740.0,0.01082
741.0,0.01068
742.0,0.01067
743.0,0.01089
744.0,0.01083
745.0,0.01079
746.0,0.0108
747.0,0.01078
748.0,0.01072
749.0,0.01056
750.0,0.01053
751.0,0.0104
752.0,0.01042
753.0,0.01045
754.0,0.01045
755.0,0.01036
756.0,0.01032
757.0,0.0103
758.0,0.01014
759.0,0.009799
760.0,0.001623
761.0,0.0008653
762.0,0.004753
763.0,0.002418
764.0,0.003575
765.0,0.004698
766.0,0.005709
767.0,0.007189
768.0,0.008436
769.0,0.008666
770.0,0.009058
771.0,0.009167
772.0,0.009169
773.0,0.009191
774.0,0.009103
775.0,0.008989
776.0,0.009053
777.0,0.008886
778.0,0.008786
779.0,0.008753
780.0,0.008673
781.0,0.008652
782.0,0.008686
783.0,0.008516
784.0,0.008538
785.0,0.008449
786.0,0.008513
787.0,0.008281
788.0,0.008136
789.0,0.00811
790.0,0.007817
791.0,0.007909
792.0,0.007836
793.0,0.007678
794.0,0.007847
795.0,0.007936
796.0,0.007565
797.0,0.007547
798.0,0.007826
799.0,0.007733
800.0,0.007538
801.0,0.007467
802.0,0.007405
803.0,0.007298
804.0,0.007295
805.0,0.007268
806.0,0.007492
807.0,0.00736
808.0,0.007321
809.0,0.007104
810.0,0.007004
811.0,0.006928
812.0,0.006645
813.0,0.006469
814.0,0.005586
815.0,0.005533
816.0,0.005115
817.0,0.005182
818.0,0.004964
819.0,0.005563
820.0,0.005233
821.0,0.006203
822.0,0.005976
823.0,0.003931
824.0,0.005732
825.0,0.006059
826.0,0.005737
827.0,0.006098
828.0,0.005033
829.0,0.005678
830.0,0.005584
831.0,0.005575
832.0,0.005365
833.0,0.005735
834.0,0.005498
835.0,0.00611
836.0,0.005753
837.0,0.006073
838.0,0.005829
839.0,0.005932
840.0,0.006052
841.0,0.005918
842.0,0.005935
843.0,0.00595
844.0,0.005824
845.0,0.006012
846.0,0.005971
847.0,0.00584
848.0,0.005757
849.0,0.005566
850.0,0.005302
851.0,0.005563
852.0,0.005506
853.0,0.005285
854.0,0.004534
855.0,0.004978
856.0,0.005417
857.0,0.005531
858.0,0.005467
859.0,0.005463
860.0,0.005461
861.0,0.005414
862.0,0.005487
863.0,0.0056
864.0,0.005306
865.0,0.005244
866.0,0.0047
867.0,0.004888
868.0,0.005301
869.0,0.005174
870.0,0.005303
871.0,0.005211
872.0,0.005174
873.0,0.005144
874.0,0.005064
875.0,0.004941
876.0,0.004971
877.0,0.005001
878.0,0.005032
879.0,0.004935
880.0,0.004809
881.0,0.004708
882.0,0.004785
883.0,0.004788
884.0,0.004742
885.0,0.004754
886.0,0.004491
887.0,0.004538
888.0,0.004574
889.0,0.004627
890.0,0.004546
891.0,0.004533
892.0,0.004351
893.0,0.004179
894.0,0.003961
895.0,0.003676
896.0,0.003424
897.0,0.002897
898.0,0.003158
899.0,0.002358
900.0,0.003222
901.0,0.002458
902.0,0.002892
903.0,0.00291
904.0,0.00376
905.0,0.003604
906.0,0.003345
907.0,0.002645
908.0,0.002707
909.0,0.002929
910.0,0.00255
911.0,0.002743
912.0,0.002861
913.0,0.00256
914.0,0.002545
915.0,0.002734
916.0,0.002305
917.0,0.002943
918.0,0.00234
919.0,0.002981
920.0,0.003046
921.0,0.003152
922.0,0.002774
923.0,0.003024
924.0,0.002811
925.0,0.002732
926.0,0.002753
927.0,0.00309
928.0,0.002194
929.0,0.001987
930.0,0.001544
931.0,0.001457
932.0,0.001042
933.0,0.0008419
934.0,0.0004569
935.0,0.0008558
936.0,0.0005301
937.0,0.0005346
938.0,0.0006553
939.0,0.001365
940.0,0.001639
941.0,0.001226
942.0,0.001415
943.0,0.0009233
944.0,0.0009709
945.0,0.001243
946.0,0.0006267
947.0,0.001239
948.0,0.0009071
949.0,0.001655
950.0,0.0004523
951.0,0.00162
952.0,0.0008612
953.0,0.001112
954.0,0.001363
955.0,0.001118
956.0,0.001087
957.0,0.0008464
958.0,0.001536
959.0,0.001207
960.0,0.001349
961.0,0.001517
962.0,0.001429
963.0,0.001653
964.0,0.001505
965.0,0.001631
966.0,0.00163
967.0,0.001616
968.0,0.002246
969.0,0.00231
970.0,0.002114
971.0,0.002451
972.0,0.002324
973.0,0.001969
974.0,0.001862
975.0,0.001935
976.0,0.001813
977.0,0.002112
978.0,0.001967
979.0,0.002065
980.0,0.001931
981.0,0.002352
982.0,0.002228
983.0,0.002118
984.0,0.002433
985.0,0.002187
986.0,0.002486
987.0,0.002399
988.0,0.002395
989.0,0.002466
990.0,0.002348
991.0,0.002442
992.0,0.002452
993.0,0.002365
994.0,0.00244
995.0,0.002435
996.0,0.002412
997.0,0.002411
998.0,0.002389
999.0,0.002374
1000.0,0.002342
1001.0,0.00237
1002.0,0.002261
1003.0,0.00231
1004.0,0.002234
1005.0,0.002158
1006.0,0.002231
1007.0,0.00227
1008.0,0.002245
1009.0,0.002219
1010.0,0.002199
1011.0,0.002225
1012.0,0.002195
1013.0,0.002207
1014.0,0.002183
1015.0,0.00216
1016.0,0.002141
1017.0,0.002137
1018.0,0.002126
1019.0,0.00206
1020.0,0.002097
1021.0,0.002089
1022.0,0.00206
1023.0,0.002075
1024.0,0.002029
1025.0,0.002061
1026.0,0.002041
1027.0,0.002031
1028.0,0.002018
1029.0,0.001985
1030.0,0.001996
1031.0,0.001979
1032.0,0.001967
1033.0,0.00193
1034.0,0.001924
1035.0,0.001922
1036.0,0.001923
1037.0,0.001886
1038.0,0.001887
1039.0,0.001878
1040.0,0.001863
1041.0,0.001862
1042.0,0.001842
1043.0,0.001829
1044.0,0.001828
1045.0,0.001795
1046.0,0.001767
1047.0,0.001776
1048.0,0.001778
1049.0,0.001765
1050.0,0.001749
1051.0,0.001739
1052.0,0.001725
1053.0,0.001703
1054.0,0.001699
1055.0,0.001692
1056.0,0.001678
1057.0,0.001665
1058.0,0.001617
1059.0,0.001611
1060.0,0.001602
1061.0,0.001593
1062.0,0.001594
1063.0,0.001571
1064.0,0.001585
1065.0,0.001563
1066.0,0.00153
1067.0,0.001544
1068.0,0.001502
1069.0,0.001453
1070.0,0.001497
1071.0,0.001521
1072.0,0.001493
1073.0,0.001467
1074.0,0.001509
1075.0,0.001412
1076.0,0.001497
1077.0,0.001457
1078.0,0.001417
1079.0,0.001462
1080.0,0.001416
1081.0,0.001359
1082.0,0.001391
1083.0,0.001394
1084.0,0.001338
1085.0,0.001397
1086.0,0.00125
1087.0,0.001299
1088.0,0.001367
1089.0,0.0013
1090.0,0.001261
1091.0,0.001342
1092.0,0.001336
1093.0,0.001094
1094.0,0.001208
1095.0,0.001131
1096.0,0.001071
1097.0,0.001283
1098.0,0.001046
1099.0,0.001087
1100.0,0.0009962
1101.0,0.001012
1102.0,0.0009562
1103.0,0.0009376
1104.0,0.0009388
1105.0,0.001033
1106.0,0.0007666
1107.0,0.0009725
1108.0,0.0008056
1109.0,0.0008039
1110.0,0.0009443
1111.0,0.0006238
1112.0,0.0007907
1113.0,0.0004914
1114.0,0.0005477
1115.0,0.0004518
1116.0,0.000357
1117.0,0.0001284
1118.0,0.0003865
1119.0,0.0001892
1120.0,0.0002372
1121.0,0.0003149
1122.0,0.0001304
1123.0,0.0002123
1124.0,0.0001785
1125.0,0.0002326
1126.0,7.905e-05
1127.0,0.0002607
1128.0,0.0001537
1129.0,0.0001628
1130.0,0.000106
1131.0,0.000492
1132.0,0.0003838
1133.0,0.0002401
1134.0,5.984e-05
1135.0,2.242e-05
1136.0,0.0001975
1137.0,0.0004728
1138.0,0.0003314
1139.0,0.0004975
1140.0,0.0004123
1141.0,0.0003118
1142.0,0.0003584
1143.0,0.0005093
1144.0,0.0001751
1145.0,0.0002224
1146.0,0.000239
1147.0,8.221e-05
1148.0,0.0004332
1149.0,0.0003433
1150.0,0.0001848
1151.0,0.0003147
1152.0,0.0003876
1153.0,0.0003778
1154.0,0.0002089
1155.0,0.0004919
1156.0,0.0004405
1157.0,0.0004953
1158.0,0.0004883
1159.0,0.000526
1160.0,0.0004476
1161.0,0.0005557
1162.0,0.0005567
1163.0,0.0007661
1164.0,0.0006484
1165.0,0.0006044
1166.0,0.0006033
1167.0,0.0006572
1168.0,0.000664
1169.0,0.0006803
1170.0,0.0007442
1171.0,0.000719
1172.0,0.0007385
1173.0,0.000733
1174.0,0.0005096
1175.0,0.0007174
1176.0,0.0008026
1177.0,0.0007575
1178.0,0.0005528
1179.0,0.000799
1180.0,0.0006977
1181.0,0.0007154
1182.0,0.0004783
1183.0,0.0007029
1184.0,0.0006519
1185.0,0.0006218
1186.0,0.0007517
1187.0,0.0007047
1188.0,0.0004759
1189.0,0.0006522
1190.0,0.000727
1191.0,0.0006766
1192.0,0.0007345
1193.0,0.0006977
1194.0,0.0007186
1195.0,0.0006692
1196.0,0.0006376
1197.0,0.0007143
1198.0,0.0006497
1199.0,0.0005347
1200.0,0.0006722
1201.0,0.0006382
1202.0,0.0006413
1203.0,0.0006273
1204.0,0.0005447
1205.0,0.0006548
1206.0,0.0007306
1207.0,0.0006264
1208.0,0.0006198
1209.0,0.0006295
1210.0,0.0006605
1211.0,0.0006218
1212.0,0.0006013
1213.0,0.0006842
1214.0,0.000615
1215.0,0.0006003
1216.0,0.0006787
1217.0,0.0006546
1218.0,0.0006687
1219.0,0.0006555
1220.0,0.0006647
1221.0,0.0006746
1222.0,0.0006511
1223.0,0.0006416
1224.0,0.0006312
1225.0,0.0006582
1226.0,0.0006656
1227.0,0.0005992
1228.0,0.0006672
1229.0,0.0006585
1230.0,0.0006439
1231.0,0.0006674
1232.0,0.0006611
1233.0,0.0006246
1234.0,0.000664
1235.0,0.000655
1236.0,0.0006599
1237.0,0.0006437
1238.0,0.0006536
1239.0,0.0006431
1240.0,0.0006444
1241.0,0.0006355
1242.0,0.0006354
1243.0,0.0006286
1244.0,0.0006296
1245.0,0.0006312
1246.0,0.0006257
1247.0,0.00062
1248.0,0.0006157
1249.0,0.0006174
1250.0,0.0006104
1251.0,0.0005981
1252.0,0.0005997
1253.0,0.0005871
1254.0,0.0005758
1255.0,0.0005921
1256.0,0.0005636
1257.0,0.0005569
1258.0,0.0005729
1259.0,0.0005375
1260.0,0.00054
1261.0,0.0004971
1262.0,0.0004767
1263.0,0.0004761
1264.0,0.0004326
1265.0,0.0004701
1266.0,0.0004473
1267.0,0.0004562
1268.0,0.0004278
1269.0,0.0002623
1270.0,0.0004493
1271.0,0.000482
1272.0,0.0004825
1273.0,0.0004749
1274.0,0.0004767
1275.0,0.0004835
1276.0,0.0004891
1277.0,0.0004944
1278.0,0.000507
1279.0,0.0005017
1280.0,0.0004939
1281.0,0.0004729
1282.0,0.0004587
1283.0,0.0004914
1284.0,0.0005015
1285.0,0.0005044
1286.0,0.0005116
1287.0,0.0004983
1288.0,0.0004986
1289.0,0.0004727
1290.0,0.0004909
1291.0,0.0004982
1292.0,0.0004539
1293.0,0.000483
1294.0,0.0004771
1295.0,0.0004671
1296.0,0.0004403
1297.0,0.0004119
1298.0,0.0004491
1299.0,0.0004743
1300.0,0.0003858
1301.0,0.0003964
1302.0,0.000443
1303.0,0.0003788
1304.0,0.0003145
1305.0,0.0004278
1306.0,0.0004236
1307.0,0.00032
1308.0,0.0003729
1309.0,0.0004144
1310.0,0.0003105
1311.0,0.0003535
1312.0,0.0003425
1313.0,0.0003308
1314.0,0.0002918
1315.0,0.0002871
1316.0,0.0003411
1317.0,0.0003212
1318.0,0.0003511
1319.0,0.0002664
1320.0,0.0002569
1321.0,0.0003013
1322.0,0.0003014
1323.0,0.0002235
1324.0,0.0002577
1325.0,0.0003237
1326.0,0.0002748
1327.0,0.0002603
1328.0,0.0002221
1329.0,0.0001655
1330.0,0.0002153
1331.0,0.0001291
1332.0,0.000133
1333.0,0.0001846
1334.0,0.0001563
1335.0,0.0002144
1336.0,0.0001687
1337.0,0.0001487
1338.0,0.0001605
1339.0,0.0001593
1340.0,0.0001546
1341.0,0.0001502
1342.0,0.0001574
1343.0,0.000106
1344.0,6.329e-05
1345.0,9.104e-05
1346.0,4.491e-05
1347.0,4.55e-05
1348.0,2.933e-06
1349.0,1.052e-05
1350.0,1.091e-05
1351.0,2.637e-06
1352.0,7.094e-07
1353.0,3.61e-08
1354.0,1.241e-07
1355.0,9.992e-10
1356.0,1.749e-08
1357.0,2.657e-08
1358.0,1.173e-09
1359.0,1.478e-10
1360.0,5.342e-10
1361.0,5.976e-13
1362.0,1.635e-15
1363.0,7.184e-10
1364.0,2.966e-10
1365.0,5.708e-16
1366.0,3.114e-09
1367.0,1.271e-09
1368.0,4.408e-18
1369.0,1.093e-10
1370.0,5.384e-11
1371.0,3.052e-12
1372.0,6.895e-10
1373.0,1.389e-08
1374.0,6.443e-08
1375.0,1.169e-07
1376.0,1.048e-07
1377.0,4.787e-08
1378.0,4.681e-07
1379.0,2e-08
1380.0,2.875e-08
1381.0,7.489e-10
1382.0,6.045e-10
1383.0,9.038e-12
1384.0,1.185e-10
1385.0,5.667e-10
1386.0,5.331e-10
1387.0,6.448e-08
1388.0,1.268e-09
1389.0,2.177e-07
1390.0,1.869e-07
1391.0,1.243e-07
1392.0,8.056e-09
1393.0,4.268e-08
1394.0,2.2e-08
1395.0,1.612e-10
1396.0,7.791e-13
1397.0,1.681e-08
1398.0,4.969e-07
1399.0,3.144e-07
1400.0,3.332e-13
1401.0,1.383e-12
1402.0,8.709e-07
1403.0,1.091e-06
1404.0,3.314e-07
1405.0,7.636e-11
1406.0,8.567e-07
1407.0,7.55e-08
1408.0,6.971e-07
1409.0,2.324e-07
1410.0,1.86e-07
1411.0,9.382e-07
1412.0,1.266e-06
1413.0,1.318e-05
1414.0,1.453e-07
1415.0,6.937e-08
1416.0,2.178e-05
1417.0,6.431e-06
1418.0,7.282e-06
1419.0,1.121e-06
1420.0,4.425e-06
1421.0,4.774e-06
1422.0,2.799e-05
1423.0,5.37e-06
1424.0,1.008e-05
1425.0,1.472e-05
1426.0,1.685e-05
1427.0,3.134e-05
1428.0,2.194e-06
1429.0,2.308e-05
1430.0,3.983e-05
1431.0,4.379e-05
1432.0,1.705e-06
1433.0,2.747e-05
1434.0,1.382e-05
1435.0,1.339e-05
1436.0,2.638e-05
1437.0,2.017e-05
1438.0,8.326e-06
1439.0,3.586e-05
1440.0,2.677e-05
1441.0,2.002e-05
1442.0,2.218e-05
1443.0,2.829e-05
1444.0,3.939e-05
1445.0,3.026e-05
1446.0,1.342e-05
1447.0,2.116e-05
1448.0,7.496e-05
1449.0,6.441e-05
1450.0,1.559e-05
1451.0,6.139e-06
1452.0,3.791e-05
1453.0,4.996e-05
1454.0,8.789e-05
1455.0,4.046e-05
1456.0,5.393e-05
1457.0,7.35e-05
1458.0,8.782e-05
1459.0,0.0001034
1460.0,5.294e-05
1461.0,5.45e-05
1462.0,8.095e-05
1463.0,2.534e-05
1464.0,9.663e-05
1465.0,5.781e-05
1466.0,3.828e-05
1467.0,1.959e-05
1468.0,4.531e-05
1469.0,5.621e-05
1470.0,2.7e-05
1471.0,9.576e-06
1472.0,2.566e-05
1473.0,3.991e-05
1474.0,5.921e-05
1475.0,0.0001138
1476.0,3.968e-05
1477.0,3.964e-05
1478.0,3.703e-05
1479.0,7.218e-05
1480.0,3.395e-05
1481.0,6.832e-05
1482.0,3.319e-05
1483.0,8.889e-05
1484.0,8.323e-05
1485.0,7.345e-05
1486.0,7.179e-05
1487.0,3.199e-05
1488.0,5.72e-05
1489.0,0.0001144
1490.0,0.0001058
1491.0,0.0001202
1492.0,9.741e-05
1493.0,0.000108
1494.0,0.000123
1495.0,0.0001081
1496.0,0.0001006
1497.0,0.0001417
1498.0,0.0001135
1499.0,0.0001331
1500.0,0.0001568
1501.0,0.0001642
1502.0,0.0001373
1503.0,0.000114
1504.0,8.987e-05
1505.0,0.0001096
1506.0,0.0001633
1507.0,0.0001564
1508.0,0.0001483
1509.0,0.0001102
1510.0,0.0001692
1511.0,0.0001613
1512.0,0.0001617
1513.0,0.0001447
1514.0,0.000134
1515.0,0.0001657
1516.0,0.0001572
1517.0,0.0001509
1518.0,0.0001516
1519.0,0.0001461
1520.0,0.0001588
1521.0,0.0001742
1522.0,0.000162
1523.0,0.0001763
1524.0,0.0001684
1525.0,0.0001579
1526.0,0.0001594
1527.0,0.0001596
1528.0,0.0001724
1529.0,0.0001625
1530.0,0.0001568
1531.0,0.0001626
1532.0,0.0001716
1533.0,0.0001719
1534.0,0.0001683
1535.0,0.000166
1536.0,0.0001694
1537.0,0.0001648
1538.0,0.0001674
1539.0,0.0001635
1540.0,0.0001645
1541.0,0.0001649
1542.0,0.0001622
1543.0,0.0001655
1544.0,0.0001627
1545.0,0.0001662
1546.0,0.0001622
1547.0,0.0001602
1548.0,0.0001598
1549.0,0.0001613
1550.0,0.0001595
1551.0,0.00016
1552.0,0.000158
1553.0,0.0001574
1554.0,0.0001553
1555.0,0.0001557
1556.0,0.000155
1557.0,0.0001567
1558.0,0.0001554
1559.0,0.0001539
1560.0,0.0001545
1561.0,0.0001552
1562.0,0.0001525
1563.0,0.000151
1564.0,0.0001512
1565.0,0.0001516
1566.0,0.0001489
1567.0,0.0001489
1568.0,0.0001468
1569.0,0.0001477
1570.0,0.0001485
1571.0,0.0001491
1572.0,0.0001478
1573.0,0.0001462
1574.0,0.0001404
1575.0,0.0001382
1576.0,0.0001352
1577.0,0.0001313
1578.0,0.0001372
1579.0,0.0001374
1580.0,0.0001385
1581.0,0.0001361
1582.0,0.0001332
1583.0,0.0001333
1584.0,0.0001364
1585.0,0.0001378
1586.0,0.0001356
1587.0,0.0001331
1588.0,0.0001298
1589.0,0.0001256
1590.0,0.0001277
1591.0,0.0001307
1592.0,0.0001337
1593.0,0.000136
1594.0,0.0001351
1595.0,0.0001333
1596.0,0.0001288
1597.0,0.0001313
1598.0,0.0001335
1599.0,0.0001317
1600.0,0.0001307
1601.0,0.0001283
1602.0,0.0001281
1603.0,0.0001296
1604.0,0.0001282
1605.0,0.0001279
1606.0,0.0001261
1607.0,0.000127
1608.0,0.000126
1609.0,0.0001228
1610.0,0.0001199
1611.0,0.0001216
1612.0,0.000123
1613.0,0.0001225
1614.0,0.0001224
1615.0,0.0001194
1616.0,0.0001173
1617.0,0.0001189
1618.0,0.000121
1619.0,0.000118
1620.0,0.0001158
1621.0,0.0001167
1622.0,0.0001182
1623.0,0.0001197
1624.0,0.0001177
1625.0,0.0001169
1626.0,0.0001169
1627.0,0.0001176
1628.0,0.0001168
1629.0,0.0001157
1630.0,0.0001146
1631.0,0.0001131
1632.0,0.0001129
1633.0,0.0001081
1634.0,0.0001116
1635.0,0.0001083
1636.0,0.0001081
1637.0,0.0001071
1638.0,9.838e-05
1639.0,0.0001042
1640.0,9.7e-05
1641.0,0.0001026
1642.0,0.000105
1643.0,9.55e-05
1644.0,0.0001048
1645.0,9.924e-05
1646.0,9.51e-05
1647.0,0.0001055
1648.0,9.44e-05
1649.0,0.0001016
1650.0,0.0001024
1651.0,9.119e-05
1652.0,0.0001005
1653.0,0.0001017
1654.0,9.316e-05
1655.0,0.0001011
1656.0,9.787e-05
1657.0,9.893e-05
1658.0,0.0001011
1659.0,9.979e-05
1660.0,0.0001004
1661.0,9.964e-05
1662.0,9.555e-05
1663.0,9.911e-05
1664.0,9.77e-05
1665.0,8.933e-05
1666.0,7.025e-05
1667.0,8.812e-05
1668.0,9.358e-05
1669.0,9.412e-05
1670.0,9.607e-05
1671.0,9.251e-05
1672.0,9.175e-05
1673.0,9.386e-05
1674.0,9.04e-05
1675.0,8.916e-05
1676.0,9.024e-05
1677.0,8.919e-05
1678.0,8.547e-05
1679.0,8.906e-05
1680.0,8.493e-05
1681.0,8.083e-05
1682.0,8.679e-05
1683.0,8.851e-05
1684.0,7.857e-05
1685.0,8.901e-05
1686.0,8.851e-05
1687.0,8.328e-05
1688.0,8.723e-05
1689.0,8.625e-05
1690.0,8.532e-05
1691.0,7.571e-05
1692.0,8.426e-05
1693.0,8.752e-05
1694.0,8.244e-05
1695.0,8.575e-05
1696.0,8.594e-05
1697.0,6.903e-05
1698.0,8.417e-05
1699.0,8.305e-05
1700.0,7.975e-05
1702.0,8.151e-05
1705.0,7.753e-05
1710.0,7.244e-05
1715.0,7.203e-05
1720.0,7.073e-05
1725.0,6.408e-05
1730.0,6.313e-05
1735.0,5.808e-05
1740.0,5.811e-05
1745.0,5.405e-05
1750.0,5.656e-05
1755.0,5.14e-05
1760.0,5.29e-05
1765.0,4.227e-05
1770.0,4.457e-05
1775.0,3.503e-05
1780.0,2.95e-05
1785.0,2.18e-05
1790.0,2.501e-05
1795.0,1.212e-05
1800.0,8.337e-06
1805.0,3.31e-06
1810.0,2.149e-06
1815.0,6.218e-07
1820.0,1.555e-07
1825.0,2.03e-07
1830.0,4.948e-10
1835.0,7.492e-10
1840.0,4.372e-12
1845.0,4.675e-10
1850.0,2.11e-10
1855.0,2.017e-11
1860.0,1.156e-09
1865.0,1.611e-09
1870.0,8.817e-15
1875.0,1.593e-14
1880.0,8.484e-09
1885.0,4.521e-09
1890.0,2.48e-08
1895.0,1.439e-08
1900.0,6.15e-11
1905.0,4.189e-11
1910.0,2.029e-09
1915.0,1.977e-09
1920.0,5.185e-08
1925.0,1.218e-07
1930.0,7.035e-08
1935.0,5.362e-07
1940.0,5.325e-07
1945.0,2.193e-06
1950.0,4.265e-06
1955.0,3.803e-06
1960.0,6.686e-06
1965.0,9.718e-06
1970.0,1.363e-05
1975.0,1.534e-05
1980.0,1.529e-05
1985.0,1.638e-05
1990.0,1.689e-05
1995.0,1.772e-05
2000.0,1.87e-05
2005.0,1.541e-05
2010.0,2.275e-05
2015.0,1.719e-05
2020.0,1.845e-05
2025.0,2.023e-05
2030.0,1.822e-05
2035.0,2.014e-05
2040.0,1.884e-05
2045.0,1.93e-05
2050.0,1.966e-05
2055.0,1.846e-05
2060.0,1.763e-05
2065.0,1.785e-05
2070.0,1.74e-05
2075.0,1.792e-05
2080.0,1.73e-05
2085.0,1.703e-05
2090.0,1.711e-05
2095.0,1.639e-05
2100.0,1.498e-05
2105.0,1.621e-05
2110.0,1.527e-05
2115.0,1.565e-05
2120.0,1.438e-05
2125.0,1.457e-05
2130.0,1.472e-05
2135.0,1.472e-05
2140.0,1.473e-05
2145.0,1.444e-05
2150.0,1.316e-05
2155.0,1.305e-05
2160.0,1.283e-05
2165.0,1.155e-05
2170.0,1.23e-05
2175.0,1.177e-05
2180.0,1.207e-05
2185.0,1.057e-05
2190.0,1.144e-05
2195.0,1.12e-05
2200.0,9.48e-06
2205.0,1.008e-05
2210.0,1.111e-05
2215.0,1.04e-05
2220.0,1.055e-05
2225.0,1.009e-05
2230.0,1.006e-05
2235.0,9.678e-06
2240.0,9.475e-06
2245.0,8.923e-06
2250.0,9.147e-06
2255.0,8.312e-06
2260.0,8.099e-06
2265.0,8.312e-06
2270.0,7.655e-06
2275.0,7.461e-06
2280.0,7.853e-06
2285.0,7.196e-06
2290.0,7.144e-06
2295.0,6.883e-06
2300.0,6.427e-06
2305.0,6.436e-06
2310.0,7.163e-06
2315.0,6.218e-06
2320.0,5.363e-06
2325.0,6.046e-06
2330.0,5.95e-06
2335.0,6.069e-06
2340.0,4.569e-06
2345.0,5.135e-06
2350.0,4.011e-06
2355.0,4.64e-06
2360.0,4.905e-06
2365.0,4.838e-06
2370.0,2.747e-06
2375.0,4.146e-06
2380.0,3.944e-06
2385.0,2.765e-06
2390.0,3.28e-06
2395.0,3.596e-06
2400.0,3.919e-06
2405.0,2.931e-06
2410.0,2.914e-06
2415.0,2.3e-06
2420.0,2.212e-06
2425.0,2.772e-06
2430.0,3.783e-06
2435.0,1.166e-06
2440.0,3.636e-06
2445.0,1.636e-06
2450.0,1.028e-06
2455.0,1.958e-06
2460.0,2.628e-06
2465.0,1.838e-06
2470.0,1.214e-06
2475.0,1.176e-06
2480.0,5.497e-07
2485.0,3.58e-07
2490.0,2.059e-07
2495.0,1.781e-07
2500.0,4.419e-07
2505.0,8.983e-08
2510.0,1.321e-07
2515.0,2.798e-08
2520.0,1.573e-08
2525.0,1.794e-09
2530.0,1.249e-11
2535.0,2.762e-12
2540.0,6.552e-12
2545.0,5.081e-16
2550.0,2.06e-18
2555.0,9.888e-15
2560.0,2.968e-16
2565.0,6.644000000000001e-20
2570.0,1.978e-24
2575.0,1.251e-34
2580.0,1.305e-28
2585.0,2.7270000000000002e-42
2590.0,1.702e-38
2595.0,3.311e-40
2600.0,2.726e-35
2605.0,3.0130000000000005e-42
2610.0,1.0369999999999999e-41
2615.0,1.4009999999999999e-45
2620.0,9.138e-36
2625.0,1.6730000000000001e-35
2630.0,0.0
2635.0,8.713999999999999e-22
2640.0,1.886e-22
2645.0,8.222000000000001e-25
2650.0,8.190000000000001e-26
2655.0,9.85e-35
2660.0,8.293e-32
2665.0,8.408e-45
2670.0,0.0
2675.0,4.0639999999999997e-44
2680.0,1.681e-30
2685.0,1.606e-31
2690.0,6.01e-31
2695.0,2.358e-33
2700.0,6.867999999999999e-29
2705.0,1.9480000000000002e-26
2710.0,1.551e-31
2715.0,1.9579999999999998e-29
2720.0,0.0
2725.0,4.385e-27
2730.0,1.278e-24
2735.0,1.458e-26
2740.0,2.634e-32
2745.0,3.396e-27
2750.0,1.9030000000000003e-26
2755.0,3.062e-28
2760.0,4.588e-23
2765.0,2.153e-29
2770.0,1.0580000000000001e-26
2775.0,1.3059999999999999e-23
2780.0,6.082e-21
2785.0,2.2830000000000002e-20
2790.0,5.206e-18
2795.0,1.145e-18
2800.0,3.656e-15
2805.0,6.837e-17
2810.0,2.741e-13
2815.0,8.177e-14
2820.0,9.991e-16
2825.0,8.77e-12
2830.0,1.906e-10
2835.0,2.625e-15
2840.0,5.617e-12
2845.0,1.944e-09
2850.0,3.365e-11
2855.0,1.344e-11
2860.0,6.987e-10
2865.0,5.152e-09
2870.0,1.307e-10
2875.0,1.254e-08
2880.0,7.903e-09
2885.0,1.302e-08
2890.0,5.534e-09
2895.0,9.433e-08
2900.0,2.629e-08
2905.0,3.043e-09
2910.0,9.622e-08
2915.0,4.083e-08
2920.0,1.013e-07
2925.0,3.612e-08
2930.0,2.186e-07
2935.0,2.411e-07
2940.0,5.397e-08
2945.0,4.635e-08
2950.0,1.871e-07
2955.0,8.33e-08
2960.0,1.653e-07
2965.0,2.798e-07
2970.0,1.096e-08
2975.0,2.777e-08
2980.0,4.321e-08
2985.0,2.542e-07
2990.0,3.85e-07
2995.0,1.463e-07
3000.0,2.78e-07
3005.0,9.463e-08
3010.0,2.433e-07
3015.0,1.886e-07
3020.0,1.705e-08
3025.0,2.6e-07
3030.0,2.048e-07
3035.0,7.785e-08
3040.0,6.084e-08
3045.0,1.307e-07
3050.0,2.962e-08
3055.0,7.247e-09
3060.0,2.034e-07
3065.0,8.611e-08
3070.0,4.839e-08
3075.0,1.896e-07
3080.0,1.101e-07
3085.0,4.864e-08
3090.0,6.614e-08
3095.0,1.627e-08
3100.0,1.322e-07
3105.0,2.477e-08
3110.0,2.073e-08
3115.0,6.221e-08
3120.0,3.048e-07
3125.0,8.954e-08
3130.0,1.778e-07
3135.0,3.563e-07
3140.0,9.473e-08
3145.0,9.289e-08
3150.0,1.96e-07
3155.0,1.65e-07
3160.0,2.736e-07
3165.0,4.295e-07
3170.0,3.802e-07
3175.0,2.671e-07
3180.0,3.152e-07
3185.0,2.206e-07
3190.0,1.156e-07
3195.0,6.418e-08
3200.0,9.058e-09
3205.0,5.917e-09
3210.0,2.465e-09
3215.0,1.002e-08
3220.0,3.518e-08
3225.0,4.046e-09
3230.0,6.72e-09
3235.0,1.883e-07
3240.0,8.562e-08
3245.0,1.625e-08
3250.0,5.995e-08
3255.0,2.568e-07
3260.0,2.564e-08
3265.0,5.552e-08
3270.0,2.614e-08
3275.0,1.578e-07
3280.0,6.701e-08
3285.0,2.902e-07
3290.0,2.183e-07
3295.0,2.687e-08
3300.0,3.993e-08
3305.0,9.167e-08
3310.0,8.705e-08
3315.0,1.262e-10
3320.0,7.951e-10
3325.0,7.311e-08
3330.0,1.11e-07
3335.0,2.149e-07
3340.0,7.918e-08
3345.0,7.69e-08
3350.0,1.916e-07
3355.0,7.779e-08
3360.0,1.194e-07
3365.0,1.683e-07
3370.0,8.154e-08
3375.0,1.976e-07
3380.0,1.073e-07
3385.0,1.701e-07
3390.0,2.234e-07
3395.0,2.166e-07
3400.0,2.924e-07
3405.0,8.942e-08
3410.0,1.57e-07
3415.0,1.526e-07
3420.0,3.047e-07
3425.0,2.179e-07
3430.0,1.838e-07
3435.0,2.614e-07
3440.0,1.673e-07
3445.0,2.489e-07
3450.0,2.428e-07
3455.0,1.732e-07
3460.0,2.762e-07
3465.0,2.041e-07
3470.0,2.666e-07
3475.0,2.31e-07
3480.0,2.364e-07
3485.0,2.571e-07
3490.0,2.143e-07
3495.0,2.579e-07
3500.0,2.49e-07
3505.0,2.456e-07
3510.0,2.481e-07
3515.0,2.353e-07
3520.0,2.495e-07
3525.0,2.316e-07
3530.0,2.234e-07
3535.0,1.824e-07
3540.0,1.723e-07
3545.0,1.821e-07
3550.0,2.05e-07
3555.0,1.717e-07
3560.0,2.091e-07
3565.0,2.08e-07
3570.0,1.567e-07
3575.0,1.615e-07
3580.0,1.941e-07
3585.0,1.691e-07
3590.0,1.764e-07
3595.0,1.802e-07
3600.0,1.924e-07
3605.0,1.913e-07
3610.0,1.731e-07
3615.0,1.734e-07
3620.0,2.164e-07
3625.0,1.838e-07
3630.0,1.788e-07
3635.0,1.84e-07
3640.0,2.081e-07
3645.0,1.859e-07
3650.0,1.766e-07
3655.0,1.932e-07
3660.0,1.915e-07
3665.0,1.75e-07
3670.0,1.315e-07
3675.0,7.467e-08
3680.0,1.359e-07
3685.0,1.561e-07
3690.0,1.607e-07
3695.0,1.683e-07
3700.0,1.83e-07
3705.0,1.792e-07
3710.0,1.517e-07
3715.0,1.491e-07
3720.0,1.707e-07
3725.0,1.752e-07
3730.0,1.483e-07
3735.0,1.336e-07
3740.0,1.374e-07
3745.0,1.629e-07
3750.0,1.456e-07
3755.0,1.398e-07
3760.0,1.366e-07
3765.0,1.309e-07
3770.0,1.409e-07
3775.0,1.385e-07
3780.0,1.474e-07
3785.0,1.326e-07
3790.0,1.148e-07
3795.0,1.331e-07
3800.0,1.509e-07
3805.0,1.399e-07
3810.0,1.211e-07
3815.0,1.123e-07
3820.0,1.444e-07
3825.0,1.405e-07
3830.0,1.423e-07
3835.0,1.086e-07
3840.0,1.301e-07
3845.0,1.255e-07
3850.0,1.259e-07
3855.0,1.193e-07
3860.0,1.096e-07
3865.0,1.1e-07
3870.0,9.797e-08
3875.0,8.774e-08
3880.0,8.403e-08
3885.0,8.701e-08
3890.0,8.802e-08
3895.0,9.727e-08
3900.0,1.04e-07
3905.0,1.031e-07
3910.0,9.057e-08
3915.0,8.766e-08
3920.0,8.718e-08
3925.0,8.517e-08
3930.0,8.805e-08
3935.0,9.192e-08
3940.0,9.284e-08
3945.0,9.43e-08
3950.0,9.559e-08
3955.0,9.638e-08
3960.0,9.699e-08
3965.0,9.75e-08
3970.0,9.584e-08
3975.0,9.255e-08
3980.0,9.067e-08
3985.0,9.068e-08
3990.0,8.892e-08
3995.0,8.634e-08
4000.0,8.224e-08
