interpolation:linear
wavelength,value
280.0,3.435e-23
280.5,1.191e-21
281.0,6.488e-21
281.5,2.171e-19
282.0,1.779e-18
282.5,4.578e-18
283.0,1.397e-17
283.5,2.249e-17
284.0,3.739e-16
284.5,1.1e-15
285.0,1.149e-15
285.5,5.789e-15
286.0,2.336e-14
286.5,1.066e-13
287.0,3.084e-13
287.5,1.206e-12
288.0,8.228e-12
288.5,2.023e-11
289.0,4.811e-11
289.5,1.35e-10
290.0,3.592e-10
290.5,7.102e-10
291.0,1.483e-09
291.5,4.159e-09
292.0,7.869e-09
292.5,1.056e-08
293.0,2.161e-08
293.5,5e-08
294.0,7.507e-08
294.5,1.512e-08
295.0,2.545e-08
295.5,3.914e-08
296.0,6.955e-08
296.5,8.959e-08
297.0,1.132e-07
297.5,2.738e-07
298.0,3.943e-07
298.5,3.697e-07
299.0,7.604e-07
299.5,1.115e-06
300.0,1.144e-06
300.5,1.541e-06
301.0,2.479e-06
301.5,3.548e-06
302.0,2.873e-06
302.5,4.435e-06
303.0,7.777e-06
303.5,9.631e-06
304.0,8.948e-06
304.5,1.312e-05
305.0,1.988e-05
305.5,2.307e-05
306.0,2.25e-05
306.5,2.846e-05
307.0,4.425e-05
307.5,6.248e-05
308.0,6.673e-05
308.5,8.167e-05
309.0,7.106e-05
309.5,8.381e-05
310.0,8.639e-05
310.5,0.0001421
311.0,0.0001835
311.5,0.0001796
312.0,0.0001943
312.5,0.0002515
313.0,0.0002826
313.5,0.0002656
314.0,0.000361
314.5,0.0003633
315.0,0.0004891
315.5,0.0003834
316.0,0.000374
316.5,0.0006047
317.0,0.0007489
317.5,0.0007493
318.0,0.0006426
318.5,0.0009635
319.0,0.001262
319.5,0.0008785
320.0,0.001037
320.5,0.001582
321.0,0.0017
321.5,0.001661
322.0,0.001447
322.5,0.001271
323.0,0.001443
323.5,0.0036
324.0,0.004369
324.5,0.00401
325.0,0.001858
325.5,0.002668
326.0,0.006198
326.5,0.007098
327.0,0.00669
327.5,0.006092
328.0,0.004569
328.5,0.005901
329.0,0.008526
329.5,0.01025
330.0,0.009868
330.5,0.006792
331.0,0.006615
331.5,0.007474
332.0,0.009461
332.5,0.01003
333.0,0.00961
333.5,0.007747
334.0,0.007781
334.5,0.01024
335.0,0.01036
335.5,0.01285
336.0,0.008891
336.5,0.009451
337.0,0.007343
337.5,0.008949
338.0,0.009714
338.5,0.01208
339.0,0.01204
339.5,0.01153
340.0,0.01261
340.5,0.01148
341.0,0.01196
341.5,0.01113
342.0,0.01335
342.5,0.01254
343.0,0.01367
343.5,0.0128
344.0,0.008852
344.5,0.009453
345.0,0.01271
345.5,0.01307
346.0,0.01116
346.5,0.01267
347.0,0.01351
347.5,0.0109
348.0,0.01253
348.5,0.01259
349.0,0.01171
349.5,0.01158
350.0,0.01434
350.5,0.01513
351.0,0.01345
351.5,0.01293
352.0,0.01399
352.5,0.01098
353.0,0.01388
353.5,0.01488
354.0,0.01547
354.5,0.01569
355.0,0.01562
355.5,0.01413
356.0,0.0148
356.5,0.01264
357.0,0.01044
357.5,0.0128
358.0,0.01015
358.5,0.008678
359.0,0.01213
359.5,0.01541
360.0,0.01635
360.5,0.01309
361.0,0.01195
361.5,0.01377
362.0,0.01192
362.5,0.0165
363.0,0.01483
363.5,0.01366
364.0,0.01671
364.5,0.01428
365.0,0.01454
365.5,0.01825
366.0,0.01935
366.5,0.01819
367.0,0.01772
367.5,0.01839
368.0,0.01609
368.5,0.01624
369.0,0.01754
369.5,0.0187
370.0,0.01994
370.5,0.01548
371.0,0.01655
371.5,0.02071
372.0,0.01375
372.5,0.01649
373.0,0.01677
373.5,0.01091
374.0,0.01586
374.5,0.01314
375.0,0.01277
375.5,0.01907
376.0,0.01581
376.5,0.01639
377.0,0.01736
377.5,0.02031
378.0,0.02202
378.5,0.02081
379.0,0.01718
379.5,0.01569
380.0,0.01632
380.5,0.01977
381.0,0.01981
381.5,0.01571
382.0,0.01395
382.5,0.0119
383.0,0.01102
383.5,0.01061
384.0,0.01171
384.5,0.01722
385.0,0.01708
385.5,0.01591
386.0,0.01363
386.5,0.01791
387.0,0.01488
387.5,0.01672
388.0,0.01544
388.5,0.01526
389.0,0.01648
389.5,0.01996
390.0,0.02003
390.5,0.01844
391.0,0.02171
391.5,0.02214
392.0,0.01865
392.5,0.0167
393.0,0.009295
393.5,0.006757
394.0,0.01375
394.5,0.01749
395.0,0.02134
395.5,0.02168
396.0,0.0188
396.5,0.01099
397.0,0.008251
397.5,0.01678
398.0,0.02351
398.5,0.0243
399.0,0.02632
399.5,0.02623
400.0,0.02724
401.0,0.0269
402.0,0.02838
403.0,0.02697
404.0,0.02655
405.0,0.02655
406.0,0.02612
407.0,0.02568
408.0,0.02667
409.0,0.02853
410.0,0.02493
411.0,0.027
412.0,0.02901
413.0,0.0283
414.0,0.02864
415.0,0.0287
416.0,0.02918
417.0,0.02845
418.0,0.02792
419.0,0.02829
420.0,0.02816
421.0,0.02944
422.0,0.02796
423.0,0.02727
424.0,0.0288
425.0,0.02872
426.0,0.02797
427.0,0.02745
428.0,0.02675
429.0,0.02535
430.0,0.02217
431.0,0.02196
432.0,0.0283
433.0,0.02843
434.0,0.02639
435.0,0.02756
436.0,0.03104
437.0,0.03059
438.0,0.0278
439.0,0.02867
440.0,0.02951
441.0,0.03049
442.0,0.03263
443.0,0.03176
444.0,0.03246
445.0,0.03179
446.0,0.03037
447.0,0.03284
448.0,0.03329
449.0,0.03333
450.0,0.03418
451.0,0.03539
452.0,0.03409
453.0,0.03205
454.0,0.03344
455.0,0.03356
456.0,0.03426
457.0,0.03469
458.0,0.03335
459.0,0.033
460.0,0.03293
461.0,0.03357
462.0,0.03379
463.0,0.03359
464.0,0.03311
465.0,0.03276
466.0,0.03308
467.0,0.03242
468.0,0.03268
469.0,0.03272
470.0,0.03159
471.0,0.03151
472.0,0.03318
473.0,0.03272
474.0,0.03269
475.0,0.03284
476.0,0.03166
477.0,0.03154
478.0,0.03218
479.0,0.03173
480.0,0.03155
481.0,0.03193
482.0,0.03198
483.0,0.03157
484.0,0.03096
485.0,0.02957
486.0,0.02591
487.0,0.02716
488.0,0.02974
489.0,0.02972
490.0,0.03113
491.0,0.03047
492.0,0.0287
493.0,0.02958
494.0,0.02982
495.0,0.03
496.0,0.03006
497.0,0.03035
498.0,0.0287
499.0,0.0288
500.0,0.02771
501.0,0.02694
502.0,0.02629
503.0,0.0271
504.0,0.02621
505.0,0.02701
506.0,0.02782
507.0,0.02646
508.0,0.02566
509.0,0.02642
510.0,0.02629
511.0,0.02697
512.0,0.02719
513.0,0.02563
514.0,0.02533
515.0,0.02495
516.0,0.02478
517.0,0.02192
518.0,0.02296
519.0,0.02398
520.0,0.02473
521.0,0.02482
522.0,0.02467
523.0,0.02409
524.0,0.02474
525.0,0.0248
526.0,0.02348
527.0,0.02191
528.0,0.02296
529.0,0.024
530.0,0.02348
531.0,0.02365
532.0,0.0227
533.0,0.02194
534.0,0.02252
535.0,0.02297
536.0,0.02315
537.0,0.02219
538.0,0.02251
539.0,0.02223
540.0,0.0212
541.0,0.02121
542.0,0.02173
543.0,0.02137
544.0,0.02161
545.0,0.02143
546.0,0.02142
547.0,0.02131
548.0,0.02097
549.0,0.02095
550.0,0.0211
551.0,0.02076
552.0,0.02081
553.0,0.02034
554.0,0.02071
555.0,0.02063
556.0,0.02024
557.0,0.01947
558.0,0.01916
559.0,0.01864
560.0,0.01871
561.0,0.01878
562.0,0.01848
563.0,0.01882
564.0,0.01818
565.0,0.0179
566.0,0.01752
567.0,0.01773
568.0,0.01745
569.0,0.01692
570.0,0.01681
571.0,0.01661
572.0,0.01689
573.0,0.01699
574.0,0.01688
575.0,0.01651
576.0,0.01634
577.0,0.01651
578.0,0.01626
579.0,0.01633
580.0,0.01666
581.0,0.01676
582.0,0.01709
583.0,0.01713
584.0,0.01726
585.0,0.01682
586.0,0.01644
587.0,0.01675
588.0,0.01627
589.0,0.01431
590.0,0.0149
591.0,0.01572
592.0,0.01541
593.0,0.01555
594.0,0.01531
595.0,0.01479
596.0,0.0153
597.0,0.01499
598.0,0.01485
599.0,0.01475
600.0,0.01468
601.0,0.0145
602.0,0.01435
603.0,0.01455
604.0,0.01477
605.0,0.0147
606.0,0.01464
607.0,0.01481
608.0,0.01468
609.0,0.01474
610.0,0.01467
611.0,0.01479
612.0,0.01478
613.0,0.01463
614.0,0.01446
615.0,0.01481
616.0,0.01434
617.0,0.01433
618.0,0.01489
619.0,0.01475
620.0,0.01484
621.0,0.01485
622.0,0.01467
623.0,0.01444
624.0,0.01418
625.0,0.01414
626.0,0.01434
627.0,0.01448
628.0,0.01336
629.0,0.01407
630.0,0.01374
631.0,0.0141
632.0,0.01394
633.0,0.0144
634.0,0.01428
635.0,0.01452
636.0,0.01435
637.0,0.01461
638.0,0.01478
639.0,0.01463
640.0,0.01451
641.0,0.01452
642.0,0.01447
643.0,0.01468
644.0,0.01464
645.0,0.01465
646.0,0.01428
647.0,0.01405
648.0,0.01407
649.0,0.01377
650.0,0.01391
651.0,0.01452
652.0,0.01384
653.0,0.01432
654.0,0.01415
655.0,0.01358
656.0,0.01205
657.0,0.01238
658.0,0.01389
659.0,0.014
660.0,0.01405
661.0,0.01417
662.0,0.01421
663.0,0.01392
664.0,0.01407
665.0,0.01407
666.0,0.01407
667.0,0.01406
668.0,0.01406
669.0,0.01427
670.0,0.01418
671.0,0.01417
672.0,0.01404
673.0,0.01424
674.0,0.01417
675.0,0.01403
676.0,0.01411
677.0,0.01395
678.0,0.01397
679.0,0.01373
680.0,0.01381
681.0,0.01369
682.0,0.01363
683.0,0.01357
684.0,0.01347
685.0,0.01356
686.0,0.01344
687.0,0.008586
688.0,0.01002
689.0,0.01004
690.0,0.01052
691.0,0.01111
692.0,0.01157
693.0,0.01147
694.0,0.01141
695.0,0.01194
696.0,0.01194
697.0,0.01278
698.0,0.01254
699.0,0.01212
700.0,0.01195
701.0,0.01176
702.0,0.01183
703.0,0.01186
704.0,0.01226
705.0,0.01222
706.0,0.0122
707.0,0.01218
708.0,0.01217
709.0,0.01219
710.0,0.01211
711.0,0.01208
712.0,0.01203
713.0,0.01183
714.0,0.01186
715.0,0.0114
716.0,0.01135
717.0,0.009593
718.0,0.008794
719.0,0.008032
720.0,0.008371
721.0,0.009291
722.0,0.01071
723.0,0.009896
724.0,0.008833
725.0,0.008655
726.0,0.009025
727.0,0.009184
728.0,0.008546
729.0,0.008892
730.0,0.009361
731.0,0.008912
732.0,0.009584
733.0,0.01018
734.0,0.01042
735.0,0.01015
736.0,0.01008
737.0,0.01009
738.0,0.0103
739.0,0.01007
740.0,0.01032
741.0,0.01019
742.0,0.01017
743.0,0.01039
744.0,0.01032
745.0,0.01029
746.0,0.0103
747.0,0.01028
748.0,0.01022
749.0,0.01008
750.0,0.01004
751.0,0.00992
752.0,0.009942
753.0,0.009971
754.0,0.009968
755.0,0.009882
756.0,0.009851
757.0,0.009833
758.0,0.009674
759.0,0.009353
760.0,0.001554
761.0,0.0008291
762.0,0.004554
763.0,0.002317
764.0,0.003426
765.0,0.004502
766.0,0.005469
767.0,0.00688
768.0,0.008061
769.0,0.008277
770.0,0.00865
771.0,0.008754
772.0,0.008756
773.0,0.008778
774.0,0.008694
775.0,0.008585
776.0,0.008646
777.0,0.008488
778.0,0.008392
779.0,0.008361
780.0,0.008284
781.0,0.008265
782.0,0.008298
783.0,0.008136
784.0,0.008157
785.0,0.008073
786.0,0.008135
787.0,0.007914
788.0,0.007777
789.0,0.007752
790.0,0.007473
791.0,0.00756
792.0,0.00749
793.0,0.00734
794.0,0.007501
795.0,0.007587
796.0,0.007234
797.0,0.007219
798.0,0.007483
799.0,0.007395
800.0,0.007208
801.0,0.007141
802.0,0.007082
803.0,0.00698
804.0,0.006978
805.0,0.006952
806.0,0.007166
807.0,0.007039
808.0,0.007002
809.0,0.006795
810.0,0.0067
811.0,0.006626
812.0,0.006359
813.0,0.00619
814.0,0.005349
815.0,0.005297
816.0,0.004901
817.0,0.004965
818.0,0.004757
819.0,0.005327
820.0,0.005015
821.0,0.005936
822.0,0.005719
823.0,0.00377
824.0,0.005489
825.0,0.005802
826.0,0.005493
827.0,0.005838
828.0,0.004824
829.0,0.005438
830.0,0.005349
831.0,0.00534
832.0,0.005141
833.0,0.005491
834.0,0.005265
835.0,0.005848
836.0,0.005511
837.0,0.005813
838.0,0.005581
839.0,0.005681
840.0,0.005795
841.0,0.005667
842.0,0.005682
843.0,0.005696
844.0,0.005575
845.0,0.005754
846.0,0.005714
847.0,0.005588
848.0,0.005509
849.0,0.005327
850.0,0.005074
851.0,0.005324
852.0,0.00527
853.0,0.005058
854.0,0.00434
855.0,0.004765
856.0,0.005185
857.0,0.005294
858.0,0.005233
859.0,0.00523
860.0,0.005228
861.0,0.005183
862.0,0.005253
863.0,0.005362
864.0,0.00508
865.0,0.005021
866.0,0.0045
867.0,0.004681
868.0,0.005077
869.0,0.004955
870.0,0.005079
871.0,0.004991
872.0,0.004956
873.0,0.004927
874.0,0.00485
875.0,0.004732
876.0,0.004761
877.0,0.00479
878.0,0.00482
879.0,0.004727
880.0,0.004606
881.0,0.004511
882.0,0.004584
883.0,0.004587
884.0,0.004543
885.0,0.004554
886.0,0.004302
887.0,0.004348
888.0,0.004382
889.0,0.004433
890.0,0.004356
891.0,0.004344
892.0,0.004169
893.0,0.004005
894.0,0.003797
895.0,0.003526
896.0,0.003286
897.0,0.002783
898.0,0.003033
899.0,0.002266
900.0,0.003092
901.0,0.002362
902.0,0.002776
903.0,0.002796
904.0,0.003606
905.0,0.003457
906.0,0.003209
907.0,0.002542
908.0,0.002601
909.0,0.002813
910.0,0.00245
911.0,0.002634
912.0,0.00275
913.0,0.00246
914.0,0.002446
915.0,0.002626
916.0,0.002216
917.0,0.002826
918.0,0.00225
919.0,0.002862
920.0,0.002924
921.0,0.003024
922.0,0.002664
923.0,0.002902
924.0,0.002699
925.0,0.002624
926.0,0.002644
927.0,0.002966
928.0,0.002111
929.0,0.001912
930.0,0.001487
931.0,0.001404
932.0,0.001004
933.0,0.0008113
934.0,0.0004403
935.0,0.0008247
936.0,0.0005108
937.0,0.0005152
938.0,0.0006315
939.0,0.001315
940.0,0.001578
941.0,0.001181
942.0,0.001363
943.0,0.0008898
944.0,0.0009355
945.0,0.001198
946.0,0.0006041
947.0,0.001194
948.0,0.0008742
949.0,0.001595
950.0,0.000436
951.0,0.00156
952.0,0.0008301
953.0,0.001072
954.0,0.001314
955.0,0.001078
956.0,0.001046
957.0,0.0008159
958.0,0.001479
959.0,0.001163
960.0,0.0013
961.0,0.001461
962.0,0.001376
963.0,0.001591
964.0,0.001449
965.0,0.00157
966.0,0.001569
967.0,0.001556
968.0,0.002158
969.0,0.00222
970.0,0.002033
971.0,0.002354
972.0,0.002233
973.0,0.001894
974.0,0.001791
975.0,0.001861
976.0,0.001745
977.0,0.00203
978.0,0.001892
979.0,0.001985
980.0,0.001857
981.0,0.002259
982.0,0.00214
983.0,0.002035
984.0,0.002336
985.0,0.002101
986.0,0.002387
987.0,0.002303
988.0,0.002299
989.0,0.002368
990.0,0.002253
991.0,0.002344
992.0,0.002354
993.0,0.00227
994.0,0.002343
995.0,0.002338
996.0,0.002316
997.0,0.002315
998.0,0.002294
999.0,0.002279
1000.0,0.002249
1001.0,0.002276
1002.0,0.002172
1003.0,0.002219
1004.0,0.002146
1005.0,0.002072
1006.0,0.002142
1007.0,0.00218
1008.0,0.002156
1009.0,0.002131
1010.0,0.002113
1011.0,0.002137
1012.0,0.002108
1013.0,0.002119
1014.0,0.002097
1015.0,0.002075
1016.0,0.002056
1017.0,0.002052
1018.0,0.002042
1019.0,0.001978
1020.0,0.002014
1021.0,0.002006
1022.0,0.001979
1023.0,0.001994
1024.0,0.001949
1025.0,0.00198
1026.0,0.00196
1027.0,0.001951
1028.0,0.001939
1029.0,0.001906
1030.0,0.001917
1031.0,0.001901
1032.0,0.001889
1033.0,0.001854
1034.0,0.001848
1035.0,0.001847
1036.0,0.001848
1037.0,0.001812
1038.0,0.001813
1039.0,0.001804
1040.0,0.00179
1041.0,0.001789
1042.0,0.00177
1043.0,0.001757
1044.0,0.001756
1045.0,0.001724
1046.0,0.001698
1047.0,0.001706
1048.0,0.001709
1049.0,0.001695
1050.0,0.00168
1051.0,0.001671
1052.0,0.001657
1053.0,0.001637
1054.0,0.001633
1055.0,0.001626
1056.0,0.001612
1057.0,0.0016
1058.0,0.001554
1059.0,0.001548
1060.0,0.001539
1061.0,0.001531
1062.0,0.001532
1063.0,0.00151
1064.0,0.001523
1065.0,0.001502
1066.0,0.00147
1067.0,0.001484
1068.0,0.001443
1069.0,0.001397
1070.0,0.001438
1071.0,0.001462
1072.0,0.001435
1073.0,0.00141
1074.0,0.00145
1075.0,0.001357
1076.0,0.001438
1077.0,0.0014
1078.0,0.001362
1079.0,0.001405
1080.0,0.001361
1081.0,0.001306
1082.0,0.001337
1083.0,0.00134
1084.0,0.001286
1085.0,0.001343
1086.0,0.001202
1087.0,0.001249
1088.0,0.001314
1089.0,0.00125
1090.0,0.001213
1091.0,0.00129
1092.0,0.001284
1093.0,0.001052
1094.0,0.001161
1095.0,0.001088
1096.0,0.001031
1097.0,0.001234
1098.0,0.001007
1099.0,0.001046
1100.0,0.0009592
1101.0,0.0009738
1102.0,0.0009207
1103.0,0.000903
1104.0,0.0009042
1105.0,0.0009939
1106.0,0.0007392
1107.0,0.0009362
1108.0,0.0007764
1109.0,0.000775
1110.0,0.0009095
1111.0,0.000602
1112.0,0.0007623
1113.0,0.0004745
1114.0,0.0005287
1115.0,0.0004363
1116.0,0.0003448
1117.0,0.000124
1118.0,0.0003733
1119.0,0.0001828
1120.0,0.0002292
1121.0,0.0003042
1122.0,0.000126
1123.0,0.000205
1124.0,0.0001725
1125.0,0.0002247
1126.0,7.637e-05
1127.0,0.0002518
1128.0,0.0001484
1129.0,0.0001572
1130.0,0.0001024
1131.0,0.0004753
1132.0,0.0003708
1133.0,0.000232
1134.0,5.781e-05
1135.0,2.166e-05
1136.0,0.0001908
1137.0,0.0004567
1138.0,0.0003202
1139.0,0.0004805
1140.0,0.0003983
1141.0,0.0003013
1142.0,0.0003463
1143.0,0.0004919
1144.0,0.0001692
1145.0,0.0002149
1146.0,0.0002309
1147.0,7.943e-05
1148.0,0.0004184
1149.0,0.0003317
1150.0,0.0001785
1151.0,0.0003041
1152.0,0.0003745
1153.0,0.0003649
1154.0,0.0002018
1155.0,0.000475
1156.0,0.0004255
1157.0,0.0004782
1158.0,0.0004714
1159.0,0.0005078
1160.0,0.0004321
1161.0,0.000536
1162.0,0.0005371
1163.0,0.0007378
1164.0,0.0006251
1165.0,0.0005828
1166.0,0.0005817
1167.0,0.0006334
1168.0,0.0006397
1169.0,0.0006554
1170.0,0.0007167
1171.0,0.0006924
1172.0,0.0007112
1173.0,0.0007058
1174.0,0.0004915
1175.0,0.0006906
1176.0,0.0007723
1177.0,0.000729
1178.0,0.0005328
1179.0,0.0007688
1180.0,0.0006722
1181.0,0.0006887
1182.0,0.0004613
1183.0,0.0006767
1184.0,0.0006282
1185.0,0.0005993
1186.0,0.0007234
1187.0,0.0006784
1188.0,0.0004592
1189.0,0.000628
1190.0,0.0006996
1191.0,0.0006516
1192.0,0.0007068
1193.0,0.0006719
1194.0,0.0006916
1195.0,0.0006443
1196.0,0.0006141
1197.0,0.0006873
1198.0,0.0006254
1199.0,0.0005154
1200.0,0.0006469
1201.0,0.0006145
1202.0,0.0006174
1203.0,0.0006039
1204.0,0.0005251
1205.0,0.0006304
1206.0,0.0007028
1207.0,0.0006031
1208.0,0.0005965
1209.0,0.000606
1210.0,0.0006358
1211.0,0.0005987
1212.0,0.0005791
1213.0,0.0006585
1214.0,0.0005923
1215.0,0.000578
1216.0,0.0006531
1217.0,0.00063
1218.0,0.0006435
1219.0,0.000631
1220.0,0.0006397
1221.0,0.000649
1222.0,0.0006265
1223.0,0.0006174
1224.0,0.0006077
1225.0,0.0006332
1226.0,0.0006403
1227.0,0.0005768
1228.0,0.0006421
1229.0,0.0006335
1230.0,0.0006194
1231.0,0.0006421
1232.0,0.0006361
1233.0,0.0006009
1234.0,0.0006389
1235.0,0.0006302
1236.0,0.0006349
1237.0,0.0006193
1238.0,0.0006288
1239.0,0.0006188
1240.0,0.00062
1241.0,0.0006116
1242.0,0.0006113
1243.0,0.0006048
1244.0,0.0006058
1245.0,0.0006073
1246.0,0.0006021
1247.0,0.0005965
1248.0,0.0005925
1249.0,0.0005941
1250.0,0.0005873
1251.0,0.0005755
1252.0,0.0005771
1253.0,0.0005649
1254.0,0.0005541
1255.0,0.0005697
1256.0,0.0005424
1257.0,0.000536
1258.0,0.0005513
1259.0,0.0005174
1260.0,0.0005198
1261.0,0.0004789
1262.0,0.0004595
1263.0,0.0004589
1264.0,0.0004173
1265.0,0.0004531
1266.0,0.0004314
1267.0,0.0004398
1268.0,0.0004127
1269.0,0.0002536
1270.0,0.0004332
1271.0,0.0004643
1272.0,0.0004647
1273.0,0.0004574
1274.0,0.0004592
1275.0,0.0004656
1276.0,0.0004709
1277.0,0.000476
1278.0,0.000488
1279.0,0.0004829
1280.0,0.0004755
1281.0,0.0004552
1282.0,0.0004414
1283.0,0.0004729
1284.0,0.0004827
1285.0,0.0004854
1286.0,0.0004923
1287.0,0.0004797
1288.0,0.0004799
1289.0,0.000455
1290.0,0.0004725
1291.0,0.0004795
1292.0,0.000437
1293.0,0.000465
1294.0,0.0004592
1295.0,0.0004495
1296.0,0.0004239
1297.0,0.0003969
1298.0,0.0004323
1299.0,0.0004565
1300.0,0.0003717
1301.0,0.0003818
1302.0,0.0004264
1303.0,0.0003651
1304.0,0.0003034
1305.0,0.0004118
1306.0,0.0004077
1307.0,0.0003086
1308.0,0.0003592
1309.0,0.0003989
1310.0,0.0002996
1311.0,0.0003408
1312.0,0.00033
1313.0,0.000319
1314.0,0.0002815
1315.0,0.000277
1316.0,0.0003289
1317.0,0.0003099
1318.0,0.0003384
1319.0,0.0002572
1320.0,0.000248
1321.0,0.0002906
1322.0,0.0002907
1323.0,0.000216
1324.0,0.0002488
1325.0,0.0003121
1326.0,0.0002652
1327.0,0.0002513
1328.0,0.0002146
1329.0,0.00016
1330.0,0.0002081
1331.0,0.0001249
1332.0,0.0001286
1333.0,0.0001785
1334.0,0.0001511
1335.0,0.0002072
1336.0,0.0001631
1337.0,0.0001438
1338.0,0.0001551
1339.0,0.000154
1340.0,0.0001494
1341.0,0.0001453
1342.0,0.0001522
1343.0,0.0001025
1344.0,6.121e-05
1345.0,8.805e-05
1346.0,4.344e-05
1347.0,4.4e-05
1348.0,2.837e-06
1349.0,1.018e-05
1350.0,1.055e-05
1351.0,2.55e-06
1352.0,6.861e-07
1353.0,3.492e-08
1354.0,1.2e-07
1355.0,9.664e-10
1356.0,1.691e-08
1357.0,2.57e-08
1358.0,1.135e-09
1359.0,1.43e-10
1360.0,5.167e-10
1361.0,5.78e-13
1362.0,1.581e-15
1363.0,6.948e-10
1364.0,2.869e-10
1365.0,5.521e-16
1366.0,3.011e-09
1367.0,1.229e-09
1368.0,4.264e-18
1369.0,1.057e-10
1370.0,5.207e-11
1371.0,2.952e-12
1372.0,6.669e-10
1373.0,1.344e-08
1374.0,6.232e-08
1375.0,1.13e-07
1376.0,1.014e-07
1377.0,4.631e-08
1378.0,4.528e-07
1379.0,1.935e-08
1380.0,2.781e-08
1381.0,7.244e-10
1382.0,5.847e-10
1383.0,8.742e-12
1384.0,1.146e-10
1385.0,5.482e-10
1386.0,5.156e-10
1387.0,6.237e-08
1388.0,1.227e-09
1389.0,2.106e-07
1390.0,1.808e-07
1391.0,1.202e-07
1392.0,7.793e-09
1393.0,4.128e-08
1394.0,2.128e-08
1395.0,1.559e-10
1396.0,7.537e-13
1397.0,1.626e-08
1398.0,4.807e-07
1399.0,3.041e-07
1400.0,3.223e-13
1401.0,1.337e-12
1402.0,8.424e-07
1403.0,1.055e-06
1404.0,3.206e-07
1405.0,7.387e-11
1406.0,8.287e-07
1407.0,7.304e-08
1408.0,6.743e-07
1409.0,2.248e-07
1410.0,1.8e-07
1411.0,9.076e-07
1412.0,1.225e-06
1413.0,1.274e-05
1414.0,1.405e-07
1415.0,6.711e-08
1416.0,2.107e-05
1417.0,6.221e-06
1418.0,7.044e-06
1419.0,1.084e-06
1420.0,4.281e-06
1421.0,4.618e-06
1422.0,2.708e-05
1423.0,5.194e-06
1424.0,9.75e-06
1425.0,1.424e-05
1426.0,1.63e-05
1427.0,3.032e-05
1428.0,2.122e-06
1429.0,2.233e-05
1430.0,3.853e-05
1431.0,4.236e-05
1432.0,1.649e-06
1433.0,2.658e-05
1434.0,1.337e-05
1435.0,1.296e-05
1436.0,2.552e-05
1437.0,1.951e-05
1438.0,8.054e-06
1439.0,3.469e-05
1440.0,2.59e-05
1441.0,1.937e-05
1442.0,2.146e-05
1443.0,2.737e-05
1444.0,3.811e-05
1445.0,2.927e-05
1446.0,1.299e-05
1447.0,2.047e-05
1448.0,7.251e-05
1449.0,6.231e-05
1450.0,1.509e-05
1451.0,5.939e-06
1452.0,3.668e-05
1453.0,4.834e-05
1454.0,8.502e-05
1455.0,3.914e-05
1456.0,5.217e-05
1457.0,7.111e-05
1458.0,8.495e-05
1459.0,0.0001
1460.0,5.122e-05
1461.0,5.273e-05
1462.0,7.831e-05
1463.0,2.451e-05
1464.0,9.348e-05
1465.0,5.592e-05
1466.0,3.703e-05
1467.0,1.895e-05
1468.0,4.383e-05
1469.0,5.438e-05
1470.0,2.612e-05
1471.0,9.265e-06
1472.0,2.483e-05
1473.0,3.861e-05
1474.0,5.729e-05
1475.0,0.0001101
1476.0,3.839e-05
1477.0,3.835e-05
1478.0,3.582e-05
1479.0,6.983e-05
1480.0,3.284e-05
1481.0,6.61e-05
1482.0,3.211e-05
1483.0,8.599e-05
1484.0,8.051e-05
1485.0,7.105e-05
1486.0,6.945e-05
1487.0,3.095e-05
1488.0,5.533e-05
1489.0,0.0001106
1490.0,0.0001023
1491.0,0.0001162
1492.0,9.421e-05
1493.0,0.0001044
1494.0,0.0001188
1495.0,0.0001045
1496.0,9.72e-05
1497.0,0.0001367
1498.0,0.0001097
1499.0,0.0001284
1500.0,0.0001512
1501.0,0.0001582
1502.0,0.0001324
1503.0,0.0001101
1504.0,8.686e-05
1505.0,0.0001058
1506.0,0.0001574
1507.0,0.0001507
1508.0,0.000143
1509.0,0.0001064
1510.0,0.000163
1511.0,0.0001555
1512.0,0.0001558
1513.0,0.0001395
1514.0,0.0001293
1515.0,0.0001596
1516.0,0.0001514
1517.0,0.0001455
1518.0,0.0001461
1519.0,0.0001409
1520.0,0.000153
1521.0,0.0001678
1522.0,0.0001561
1523.0,0.0001698
1524.0,0.0001622
1525.0,0.0001521
1526.0,0.0001537
1527.0,0.0001538
1528.0,0.000166
1529.0,0.0001564
1530.0,0.0001511
1531.0,0.0001566
1532.0,0.0001652
1533.0,0.0001655
1534.0,0.0001621
1535.0,0.00016
1536.0,0.0001632
1537.0,0.0001588
1538.0,0.0001612
1539.0,0.0001575
1540.0,0.0001584
1541.0,0.0001588
1542.0,0.0001562
1543.0,0.0001594
1544.0,0.0001567
1545.0,0.0001601
1546.0,0.0001562
1547.0,0.0001543
1548.0,0.0001539
1549.0,0.0001554
1550.0,0.0001536
1551.0,0.0001541
1552.0,0.0001522
1553.0,0.0001516
1554.0,0.0001496
1555.0,0.00015
1556.0,0.0001493
1557.0,0.0001509
1558.0,0.0001497
1559.0,0.0001483
1560.0,0.0001488
1561.0,0.0001495
1562.0,0.0001469
1563.0,0.0001454
1564.0,0.0001456
1565.0,0.000146
1566.0,0.0001434
1567.0,0.0001434
1568.0,0.0001414
1569.0,0.0001423
1570.0,0.000143
1571.0,0.0001436
1572.0,0.0001423
1573.0,0.0001408
1574.0,0.0001352
1575.0,0.0001331
1576.0,0.0001302
1577.0,0.0001264
1578.0,0.0001321
1579.0,0.0001324
1580.0,0.0001334
1581.0,0.0001311
1582.0,0.0001283
1583.0,0.0001284
1584.0,0.0001314
1585.0,0.0001327
1586.0,0.0001306
1587.0,0.0001281
1588.0,0.000125
1589.0,0.0001209
1590.0,0.000123
1591.0,0.0001259
1592.0,0.0001288
1593.0,0.000131
1594.0,0.0001302
1595.0,0.0001284
1596.0,0.0001241
1597.0,0.0001264
1598.0,0.0001286
1599.0,0.0001268
1600.0,0.0001259
1601.0,0.0001236
1602.0,0.0001234
1603.0,0.0001248
1604.0,0.0001235
1605.0,0.0001232
1606.0,0.0001215
1607.0,0.0001223
1608.0,0.0001214
1609.0,0.0001182
1610.0,0.0001155
1611.0,0.0001172
1612.0,0.0001184
1613.0,0.000118
1614.0,0.0001179
1615.0,0.000115
1616.0,0.0001129
1617.0,0.0001145
1618.0,0.0001166
1619.0,0.0001137
1620.0,0.0001115
1621.0,0.0001124
1622.0,0.0001138
1623.0,0.0001153
1624.0,0.0001134
1625.0,0.0001126
1626.0,0.0001126
1627.0,0.0001133
1628.0,0.0001125
1629.0,0.0001115
1630.0,0.0001104
1631.0,0.000109
1632.0,0.0001088
1633.0,0.0001041
1634.0,0.0001075
1635.0,0.0001043
1636.0,0.0001041
1637.0,0.0001032
1638.0,9.476e-05
1639.0,0.0001004
1640.0,9.346e-05
1641.0,9.883e-05
1642.0,0.0001012
1643.0,9.201e-05
1644.0,0.0001009
1645.0,9.559e-05
1646.0,9.163e-05
1647.0,0.0001016
1648.0,9.096e-05
1649.0,9.783e-05
1650.0,9.859e-05
1651.0,8.789e-05
1652.0,9.676e-05
1653.0,9.8e-05
1654.0,8.976e-05
1655.0,9.734e-05
1656.0,9.427e-05
1657.0,9.529e-05
1658.0,9.741e-05
1659.0,9.612e-05
1660.0,9.673e-05
1661.0,9.599e-05
1662.0,9.205e-05
1663.0,9.546e-05
1664.0,9.411e-05
1665.0,8.607e-05
1666.0,6.787e-05
1667.0,8.491e-05
1668.0,9.013e-05
1669.0,9.068e-05
1670.0,9.254e-05
1671.0,8.911e-05
1672.0,8.839e-05
1673.0,9.04e-05
1674.0,8.708e-05
1675.0,8.589e-05
1676.0,8.693e-05
1677.0,8.591e-05
1678.0,8.234e-05
1679.0,8.578e-05
1680.0,8.18e-05
1681.0,7.786e-05
1682.0,8.36e-05
1683.0,8.526e-05
1684.0,7.571e-05
1685.0,8.574e-05
1686.0,8.526e-05
1687.0,8.023e-05
1688.0,8.402e-05
1689.0,8.308e-05
1690.0,8.219e-05
1691.0,7.296e-05
1692.0,8.116e-05
1693.0,8.43e-05
1694.0,7.942e-05
1695.0,8.259e-05
1696.0,8.278e-05
1697.0,6.655e-05
1698.0,8.107e-05
1699.0,7.999e-05
1700.0,7.683e-05
1702.0,7.851e-05
1705.0,7.469e-05
1710.0,6.98e-05
1715.0,6.941e-05
1720.0,6.815e-05
1725.0,6.175e-05
1730.0,6.087e-05
1735.0,5.598e-05
1740.0,5.604e-05
1745.0,5.215e-05
1750.0,5.452e-05
1755.0,4.959e-05
1760.0,5.099e-05
1765.0,4.082e-05
1770.0,4.302e-05
1775.0,3.385e-05
1780.0,2.852e-05
1785.0,2.109e-05
1790.0,2.419e-05
1795.0,1.173e-05
1800.0,8.07e-06
1805.0,3.204e-06
1810.0,2.08e-06
1815.0,6.018e-07
1820.0,1.506e-07
1825.0,1.965e-07
1830.0,4.789e-10
1835.0,7.252e-10
1840.0,4.232e-12
1845.0,4.525e-10
1850.0,2.043e-10
1855.0,1.952e-11
1860.0,1.119e-09
1865.0,1.559e-09
1870.0,8.534e-15
1875.0,1.542e-14
1880.0,8.212e-09
1885.0,4.376e-09
1890.0,2.4e-08
1895.0,1.393e-08
1900.0,5.953e-11
1905.0,4.055e-11
1910.0,1.964e-09
1915.0,1.913e-09
1920.0,5.018e-08
1925.0,1.179e-07
1930.0,6.809e-08
1935.0,5.191e-07
1940.0,5.154e-07
1945.0,2.123e-06
1950.0,4.128e-06
1955.0,3.681e-06
1960.0,6.472e-06
1965.0,9.404e-06
1970.0,1.319e-05
1975.0,1.484e-05
1980.0,1.478e-05
1985.0,1.582e-05
1990.0,1.632e-05
1995.0,1.712e-05
2000.0,1.806e-05
2005.0,1.489e-05
2010.0,2.194e-05
2015.0,1.66e-05
2020.0,1.781e-05
2025.0,1.951e-05
2030.0,1.759e-05
2035.0,1.942e-05
2040.0,1.817e-05
2045.0,1.862e-05
2050.0,1.897e-05
2055.0,1.781e-05
2060.0,1.701e-05
2065.0,1.722e-05
2070.0,1.68e-05
2075.0,1.729e-05
2080.0,1.67e-05
2085.0,1.643e-05
2090.0,1.651e-05
2095.0,1.581e-05
2100.0,1.446e-05
2105.0,1.564e-05
2110.0,1.473e-05
2115.0,1.51e-05
2120.0,1.388e-05
2125.0,1.406e-05
2130.0,1.421e-05
2135.0,1.421e-05
2140.0,1.421e-05
2145.0,1.393e-05
2150.0,1.27e-05
2155.0,1.259e-05
2160.0,1.238e-05
2165.0,1.115e-05
2170.0,1.186e-05
2175.0,1.136e-05
2180.0,1.165e-05
2185.0,1.02e-05
2190.0,1.104e-05
2195.0,1.08e-05
2200.0,9.156e-06
2205.0,9.733e-06
2210.0,1.072e-05
2215.0,1.003e-05
2220.0,1.018e-05
2225.0,9.739e-06
2230.0,9.708e-06
2235.0,9.339e-06
2240.0,9.143e-06
2245.0,8.614e-06
2250.0,8.828e-06
2255.0,8.027e-06
2260.0,7.822e-06
2265.0,8.025e-06
2270.0,7.395e-06
2275.0,7.209e-06
2280.0,7.582e-06
2285.0,6.952e-06
2290.0,6.902e-06
2295.0,6.65e-06
2300.0,6.213e-06
2305.0,6.221e-06
2310.0,6.916e-06
2315.0,6.01e-06
2320.0,5.187e-06
2325.0,5.84e-06
2330.0,5.75e-06
2335.0,5.863e-06
2340.0,4.42e-06
2345.0,4.965e-06
2350.0,3.88e-06
2355.0,4.487e-06
2360.0,4.742e-06
2365.0,4.676e-06
2370.0,2.659e-06
2375.0,4.011e-06
2380.0,3.815e-06
2385.0,2.676e-06
2390.0,3.174e-06
2395.0,3.479e-06
2400.0,3.79e-06
2405.0,2.836e-06
2410.0,2.819e-06
2415.0,2.227e-06
2420.0,2.141e-06
2425.0,2.683e-06
2430.0,3.66e-06
2435.0,1.128e-06
2440.0,3.518e-06
2445.0,1.584e-06
2450.0,9.954e-07
2455.0,1.895e-06
2460.0,2.544e-06
2465.0,1.779e-06
2470.0,1.175e-06
2475.0,1.138e-06
2480.0,5.322e-07
2485.0,3.466e-07
2490.0,1.993e-07
2495.0,1.724e-07
2500.0,4.278e-07
2505.0,8.697e-08
2510.0,1.279e-07
2515.0,2.708e-08
2520.0,1.523e-08
2525.0,1.737e-09
2530.0,1.209e-11
2535.0,2.674e-12
2540.0,6.343e-12
2545.0,4.919e-16
2550.0,1.995e-18
2555.0,9.573e-15
2560.0,2.873e-16
2565.0,6.432e-20
2570.0,1.915e-24
2575.0,1.212e-34
2580.0,1.2630000000000001e-28
2585.0,2.64e-42
2590.0,1.647e-38
2595.0,3.205e-40
2600.0,2.639e-35
2605.0,2.9160000000000005e-42
2610.0,1.004e-41
2615.0,1.4009999999999999e-45
2620.0,8.847e-36
2625.0,1.62e-35
2630.0,0.0
2635.0,8.435999999999999e-22
2640.0,1.826e-22
2645.0,7.961e-25
2650.0,7.93e-26
2655.0,9.536e-35
2660.0,8.029e-32
2665.0,7.006e-45
2670.0,0.0
2675.0,3.924e-44
2680.0,1.6280000000000002e-30
2685.0,1.5550000000000001e-31
2690.0,5.8190000000000005e-31
2695.0,2.2829999999999998e-33
2700.0,6.648999999999999e-29
2705.0,1.8860000000000003e-26
2710.0,1.502e-31
2715.0,1.8959999999999998e-29
2720.0,0.0
2725.0,4.246e-27
2730.0,1.238e-24
2735.0,1.4110000000000002e-26
2740.0,2.55e-32
2745.0,3.288e-27
2750.0,1.8430000000000002e-26
2755.0,2.965e-28
2760.0,4.442e-23
2765.0,2.0849999999999998e-29
2770.0,1.0240000000000001e-26
2775.0,1.265e-23
2780.0,5.888e-21
2785.0,2.2110000000000002e-20
2790.0,5.041e-18
2795.0,1.109e-18
2800.0,3.54e-15
2805.0,6.619e-17
2810.0,2.654e-13
2815.0,7.917e-14
2820.0,9.673e-16
2825.0,8.491e-12
2830.0,1.845e-10
2835.0,2.542e-15
2840.0,5.438e-12
2845.0,1.882e-09
2850.0,3.258e-11
2855.0,1.301e-11
2860.0,6.765e-10
2865.0,4.988e-09
2870.0,1.265e-10
2875.0,1.214e-08
2880.0,7.651e-09
2885.0,1.26e-08
2890.0,5.358e-09
2895.0,9.133e-08
2900.0,2.546e-08
2905.0,2.947e-09
2910.0,9.316e-08
2915.0,3.953e-08
2920.0,9.811e-08
2925.0,3.497e-08
2930.0,2.117e-07
2935.0,2.334e-07
2940.0,5.225e-08
2945.0,4.487e-08
2950.0,1.811e-07
2955.0,8.065e-08
2960.0,1.6e-07
2965.0,2.709e-07
2970.0,1.061e-08
2975.0,2.689e-08
2980.0,4.184e-08
2985.0,2.461e-07
2990.0,3.728e-07
2995.0,1.416e-07
3000.0,2.692e-07
3005.0,9.162e-08
3010.0,2.356e-07
3015.0,1.826e-07
3020.0,1.651e-08
3025.0,2.517e-07
3030.0,1.982e-07
3035.0,7.538e-08
3040.0,5.891e-08
3045.0,1.265e-07
3050.0,2.868e-08
3055.0,7.016e-09
3060.0,1.969e-07
3065.0,8.337e-08
3070.0,4.685e-08
3075.0,1.836e-07
3080.0,1.066e-07
3085.0,4.709e-08
3090.0,6.404e-08
3095.0,1.575e-08
3100.0,1.28e-07
3105.0,2.398e-08
3110.0,2.007e-08
3115.0,6.023e-08
3120.0,2.951e-07
3125.0,8.669e-08
3130.0,1.721e-07
3135.0,3.449e-07
3140.0,9.172e-08
3145.0,8.994e-08
3150.0,1.898e-07
3155.0,1.597e-07
3160.0,2.649e-07
3165.0,4.158e-07
3170.0,3.681e-07
3175.0,2.586e-07
3180.0,3.052e-07
3185.0,2.136e-07
3190.0,1.119e-07
3195.0,6.214e-08
3200.0,8.77e-09
3205.0,5.729e-09
3210.0,2.387e-09
3215.0,9.703e-09
3220.0,3.406e-08
3225.0,3.918e-09
3230.0,6.506e-09
3235.0,1.823e-07
3240.0,8.29e-08
3245.0,1.574e-08
3250.0,5.805e-08
3255.0,2.486e-07
3260.0,2.483e-08
3265.0,5.376e-08
3270.0,2.531e-08
3275.0,1.528e-07
3280.0,6.488e-08
3285.0,2.809e-07
3290.0,2.114e-07
3295.0,2.601e-08
3300.0,3.866e-08
3305.0,8.875e-08
3310.0,8.428e-08
3315.0,1.222e-10
3320.0,7.698e-10
3325.0,7.078e-08
3330.0,1.075e-07
3335.0,2.08e-07
3340.0,7.666e-08
3345.0,7.446e-08
3350.0,1.855e-07
3355.0,7.532e-08
3360.0,1.156e-07
3365.0,1.63e-07
3370.0,7.895e-08
3375.0,1.913e-07
3380.0,1.039e-07
3385.0,1.647e-07
3390.0,2.163e-07
3395.0,2.097e-07
3400.0,2.831e-07
3405.0,8.658e-08
3410.0,1.52e-07
3415.0,1.478e-07
3420.0,2.949e-07
3425.0,2.11e-07
3430.0,1.779e-07
3435.0,2.53e-07
3440.0,1.62e-07
3445.0,2.41e-07
3450.0,2.351e-07
3455.0,1.677e-07
3460.0,2.673e-07
3465.0,1.976e-07
3470.0,2.581e-07
3475.0,2.236e-07
3480.0,2.289e-07
3485.0,2.489e-07
3490.0,2.075e-07
3495.0,2.496e-07
3500.0,2.41e-07
3505.0,2.377e-07
3510.0,2.402e-07
3515.0,2.277e-07
3520.0,2.415e-07
3525.0,2.241e-07
3530.0,2.163e-07
3535.0,1.766e-07
3540.0,1.668e-07
3545.0,1.763e-07
3550.0,1.984e-07
3555.0,1.662e-07
3560.0,2.023e-07
3565.0,2.013e-07
3570.0,1.517e-07
3575.0,1.563e-07
3580.0,1.878e-07
3585.0,1.637e-07
3590.0,1.707e-07
3595.0,1.744e-07
3600.0,1.861e-07
3605.0,1.851e-07
3610.0,1.675e-07
3615.0,1.678e-07
3620.0,2.094e-07
3625.0,1.779e-07
3630.0,1.73e-07
3635.0,1.781e-07
3640.0,2.013e-07
3645.0,1.799e-07
3650.0,1.708e-07
3655.0,1.869e-07
3660.0,1.853e-07
3665.0,1.693e-07
3670.0,1.272e-07
3675.0,7.229e-08
3680.0,1.316e-07
3685.0,1.511e-07
3690.0,1.556e-07
3695.0,1.628e-07
3700.0,1.77e-07
3705.0,1.733e-07
3710.0,1.468e-07
3715.0,1.443e-07
3720.0,1.651e-07
3725.0,1.694e-07
3730.0,1.434e-07
3735.0,1.292e-07
3740.0,1.329e-07
3745.0,1.575e-07
3750.0,1.408e-07
3755.0,1.352e-07
3760.0,1.322e-07
3765.0,1.266e-07
3770.0,1.363e-07
3775.0,1.34e-07
3780.0,1.425e-07
3785.0,1.283e-07
3790.0,1.111e-07
3795.0,1.287e-07
3800.0,1.459e-07
3805.0,1.353e-07
3810.0,1.172e-07
3815.0,1.087e-07
3820.0,1.396e-07
3825.0,1.359e-07
3830.0,1.376e-07
3835.0,1.05e-07
3840.0,1.258e-07
3845.0,1.214e-07
3850.0,1.218e-07
3855.0,1.154e-07
3860.0,1.061e-07
3865.0,1.065e-07
3870.0,9.482e-08
3875.0,8.493e-08
3880.0,8.136e-08
3885.0,8.423e-08
3890.0,8.521e-08
3895.0,9.415e-08
3900.0,1.006e-07
3905.0,9.98e-08
3910.0,8.766e-08
3915.0,8.486e-08
3920.0,8.438e-08
3925.0,8.244e-08
3930.0,8.522e-08
3935.0,8.896e-08
3940.0,8.984e-08
3945.0,9.125e-08
3950.0,9.248e-08
3955.0,9.324e-08
3960.0,9.382e-08
3965.0,9.431e-08
3970.0,9.271e-08
3975.0,8.954e-08
3980.0,8.772e-08
3985.0,8.772e-08
3990.0,8.603e-08
3995.0,8.354e-08
4000.0,7.957e-08
