interpolation:linear
wavelength,value
280.0,1.763e-27
280.5,9.809e-26
281.0,6.494e-25
281.5,3.4459999999999996e-23
282.0,3.7899999999999996e-22
282.5,1.807e-21
283.0,1.013e-20
283.5,2.1510000000000003e-20
284.0,9.478e-19
284.5,4.174e-18
285.0,1.273e-17
285.5,1.335e-16
286.0,7.097e-16
286.5,5.266e-15
287.0,2.141e-14
287.5,1.258e-13
288.0,7.739e-13
288.5,3.626e-12
289.0,1.439e-11
289.5,6.447e-11
290.0,2.434e-10
290.5,6.386e-10
291.0,1.825e-09
291.5,7.377e-09
292.0,2.211e-08
292.5,3.655e-08
293.0,9.561e-08
293.5,3.003e-07
294.0,5.633e-07
294.5,1.08e-06
295.0,2.115e-06
295.5,5.84e-06
296.0,1.149e-05
296.5,1.63e-05
297.0,2.226e-05
297.5,5.98e-05
298.0,9.393e-05
298.5,9.402e-05
299.0,0.0002056
299.5,0.0003311
300.0,0.0003581
300.5,0.0005075
301.0,0.0008755
301.5,0.001328
302.0,0.001111
302.5,0.002175
303.0,0.003896
303.5,0.004883
304.0,0.004539
304.5,0.006487
305.0,0.009206
305.5,0.01013
306.0,0.009696
306.5,0.01179
307.0,0.01642
307.5,0.02054
308.0,0.02161
308.5,0.02485
309.0,0.02231
309.5,0.02536
310.0,0.02543
310.5,0.0413
311.0,0.05173
311.5,0.05009
312.0,0.04923
312.5,0.05925
313.0,0.06406
313.5,0.06325
314.0,0.07773
314.5,0.067
315.0,0.08806
315.5,0.0755
316.0,0.0644
316.5,0.09052
317.0,0.1132
317.5,0.1195
318.0,0.09198
318.5,0.1105
319.0,0.1292
319.5,0.1095
320.0,0.1338
320.5,0.1615
321.0,0.139
321.5,0.1336
322.0,0.1495
322.5,0.1305
323.0,0.1272
323.5,0.1496
324.0,0.1748
324.5,0.1807
325.0,0.1629
325.5,0.2058
326.0,0.2459
326.5,0.2434
327.0,0.2455
327.5,0.2403
328.0,0.2198
328.5,0.2263
329.0,0.2665
329.5,0.302
330.0,0.3081
330.5,0.2522
331.0,0.2597
331.5,0.262
332.0,0.2792
332.5,0.2752
333.0,0.2772
333.5,0.2558
334.0,0.2639
334.5,0.3012
335.0,0.2818
335.5,0.3211
336.0,0.2231
336.5,0.2718
337.0,0.2256
337.5,0.2826
338.0,0.2736
338.5,0.3099
339.0,0.31
339.5,0.2983
340.0,0.3597
340.5,0.3253
341.0,0.3132
341.5,0.2915
342.0,0.3506
342.5,0.33
343.0,0.3629
343.5,0.3419
344.0,0.2569
344.5,0.2552
345.0,0.3431
345.5,0.353
346.0,0.3019
346.5,0.3436
347.0,0.3691
347.5,0.2992
348.0,0.3439
348.5,0.3458
349.0,0.3223
349.5,0.3202
350.0,0.3977
350.5,0.421
351.0,0.377
351.5,0.3659
352.0,0.3958
352.5,0.3107
353.0,0.3932
353.5,0.4223
354.0,0.4402
354.5,0.448
355.0,0.448
355.5,0.4062
356.0,0.4266
356.5,0.3656
357.0,0.3031
357.5,0.3724
358.0,0.2962
358.5,0.254
359.0,0.3565
359.5,0.4555
360.0,0.4846
360.5,0.3887
361.0,0.3556
361.5,0.4107
362.0,0.3562
362.5,0.4945
363.0,0.4455
363.5,0.4116
364.0,0.5049
364.5,0.4329
365.0,0.4422
365.5,0.5567
366.0,0.5916
366.5,0.5575
367.0,0.5446
367.5,0.5668
368.0,0.4974
368.5,0.5034
369.0,0.5452
369.5,0.5828
370.0,0.623
370.5,0.4849
371.0,0.5196
371.5,0.6519
372.0,0.4339
372.5,0.5217
373.0,0.532
373.5,0.3471
374.0,0.5057
374.5,0.4199
375.0,0.4093
375.5,0.6127
376.0,0.5092
376.5,0.5291
377.0,0.5616
377.5,0.6588
378.0,0.716
378.5,0.6786
379.0,0.5616
379.5,0.5144
380.0,0.5362
380.5,0.6511
381.0,0.6541
381.5,0.5198
382.0,0.4628
382.5,0.3955
383.0,0.3671
383.5,0.3544
384.0,0.3918
384.5,0.5777
385.0,0.5742
385.5,0.536
386.0,0.4601
386.5,0.6058
387.0,0.5046
387.5,0.5681
388.0,0.5257
388.5,0.5208
389.0,0.5635
389.5,0.684
390.0,0.688
390.5,0.6346
391.0,0.7486
391.5,0.7653
392.0,0.646
392.5,0.5796
393.0,0.3232
393.5,0.2354
394.0,0.4799
394.5,0.6114
395.0,0.7476
395.5,0.761
396.0,0.6612
396.5,0.3873
397.0,0.2912
397.5,0.5935
398.0,0.8328
398.5,0.8625
399.0,0.9356
399.5,0.9343
400.0,0.9721
401.0,1.002
402.0,1.061
403.0,1.011
404.0,0.9992
405.0,1.003
406.0,0.9896
407.0,0.9769
408.0,1.019
409.0,1.094
410.0,0.9584
411.0,1.041
412.0,1.122
413.0,1.097
414.0,1.114
415.0,1.12
416.0,1.143
417.0,1.118
418.0,1.101
419.0,1.119
420.0,1.117
421.0,1.172
422.0,1.117
423.0,1.094
424.0,1.161
425.0,1.162
426.0,1.134
427.0,1.116
428.0,1.09
429.0,1.034
430.0,0.9074
431.0,0.9018
432.0,1.167
433.0,1.176
434.0,1.095
435.0,1.146
436.0,1.294
437.0,1.279
438.0,1.167
439.0,1.21
440.0,1.252
441.0,1.3
442.0,1.397
443.0,1.364
444.0,1.396
445.0,1.369
446.0,1.308
447.0,1.417
448.0,1.443
449.0,1.451
450.0,1.494
451.0,1.553
452.0,1.499
453.0,1.412
454.0,1.476
455.0,1.488
456.0,1.527
457.0,1.555
458.0,1.505
459.0,1.5
460.0,1.507
461.0,1.544
462.0,1.558
463.0,1.55
464.0,1.526
465.0,1.509
466.0,1.525
467.0,1.5
468.0,1.521
469.0,1.531
470.0,1.485
471.0,1.485
472.0,1.567
473.0,1.549
474.0,1.554
475.0,1.571
476.0,1.527
477.0,1.534
478.0,1.579
479.0,1.571
480.0,1.576
481.0,1.608
482.0,1.618
483.0,1.6
484.0,1.569
485.0,1.496
486.0,1.309
487.0,1.374
488.0,1.509
489.0,1.516
490.0,1.597
491.0,1.571
492.0,1.485
493.0,1.536
494.0,1.553
495.0,1.568
496.0,1.579
497.0,1.606
498.0,1.533
499.0,1.554
500.0,1.511
501.0,1.486
502.0,1.468
503.0,1.53
504.0,1.495
505.0,1.548
506.0,1.6
507.0,1.524
508.0,1.478
509.0,1.52
510.0,1.513
511.0,1.554
512.0,1.573
513.0,1.49
514.0,1.481
515.0,1.468
516.0,1.466
517.0,1.303
518.0,1.372
519.0,1.44
520.0,1.494
521.0,1.51
522.0,1.513
523.0,1.487
524.0,1.542
525.0,1.562
526.0,1.494
527.0,1.409
528.0,1.492
529.0,1.575
530.0,1.553
531.0,1.578
532.0,1.525
533.0,1.481
534.0,1.526
535.0,1.56
536.0,1.576
537.0,1.515
538.0,1.542
539.0,1.531
540.0,1.469
541.0,1.48
542.0,1.528
543.0,1.513
544.0,1.54
545.0,1.536
546.0,1.545
547.0,1.545
548.0,1.527
549.0,1.533
550.0,1.552
551.0,1.534
552.0,1.546
553.0,1.519
554.0,1.557
555.0,1.561
556.0,1.542
557.0,1.495
558.0,1.485
559.0,1.459
560.0,1.478
561.0,1.499
562.0,1.489
563.0,1.532
564.0,1.491
565.0,1.48
566.0,1.459
567.0,1.488
568.0,1.477
569.0,1.445
570.0,1.445
571.0,1.436
572.0,1.473
573.0,1.49
574.0,1.486
575.0,1.46
576.0,1.447
577.0,1.464
578.0,1.442
579.0,1.447
580.0,1.474
581.0,1.481
582.0,1.509
583.0,1.512
584.0,1.525
585.0,1.489
586.0,1.459
587.0,1.492
588.0,1.459
589.0,1.299
590.0,1.359
591.0,1.435
592.0,1.42
593.0,1.439
594.0,1.431
595.0,1.398
596.0,1.449
597.0,1.435
598.0,1.431
599.0,1.432
600.0,1.434
601.0,1.422
602.0,1.413
603.0,1.436
604.0,1.46
605.0,1.453
606.0,1.447
607.0,1.462
608.0,1.446
609.0,1.448
610.0,1.438
611.0,1.446
612.0,1.442
613.0,1.424
614.0,1.405
615.0,1.436
616.0,1.389
617.0,1.386
618.0,1.44
619.0,1.425
620.0,1.435
621.0,1.437
622.0,1.421
623.0,1.4
624.0,1.377
625.0,1.374
626.0,1.395
627.0,1.412
628.0,1.331
629.0,1.383
630.0,1.352
631.0,1.379
632.0,1.363
633.0,1.403
634.0,1.388
635.0,1.41
636.0,1.391
637.0,1.414
638.0,1.427
639.0,1.411
640.0,1.397
641.0,1.396
642.0,1.39
643.0,1.409
644.0,1.404
645.0,1.407
646.0,1.376
647.0,1.363
648.0,1.365
649.0,1.339
650.0,1.342
651.0,1.4
652.0,1.347
653.0,1.382
654.0,1.367
655.0,1.318
656.0,1.167
657.0,1.199
658.0,1.343
659.0,1.352
660.0,1.358
661.0,1.368
662.0,1.371
663.0,1.344
664.0,1.359
665.0,1.36
666.0,1.361
667.0,1.36
668.0,1.36
669.0,1.381
670.0,1.376
671.0,1.375
672.0,1.364
673.0,1.384
674.0,1.379
675.0,1.367
676.0,1.376
677.0,1.363
678.0,1.367
679.0,1.345
680.0,1.356
681.0,1.347
682.0,1.346
683.0,1.344
684.0,1.337
685.0,1.349
686.0,1.341
687.0,0.9409
688.0,1.079
689.0,1.082
690.0,1.127
691.0,1.178
692.0,1.214
693.0,1.205
694.0,1.195
695.0,1.239
696.0,1.241
697.0,1.309
698.0,1.289
699.0,1.264
700.0,1.249
701.0,1.238
702.0,1.245
703.0,1.247
704.0,1.284
705.0,1.287
706.0,1.285
707.0,1.285
708.0,1.289
709.0,1.289
710.0,1.29
711.0,1.288
712.0,1.283
713.0,1.271
714.0,1.276
715.0,1.238
716.0,1.239
717.0,1.094
718.0,1.008
719.0,0.9257
720.0,0.9711
721.0,1.061
722.0,1.201
723.0,1.125
724.0,1.021
725.0,1.007
726.0,1.053
727.0,1.064
728.0,1.006
729.0,1.037
730.0,1.098
731.0,1.053
732.0,1.119
733.0,1.178
734.0,1.204
735.0,1.181
736.0,1.179
737.0,1.184
738.0,1.198
739.0,1.175
740.0,1.204
741.0,1.192
742.0,1.192
743.0,1.223
744.0,1.219
745.0,1.219
746.0,1.225
747.0,1.227
748.0,1.225
749.0,1.211
750.0,1.211
751.0,1.199
752.0,1.204
753.0,1.21
754.0,1.213
755.0,1.206
756.0,1.206
757.0,1.208
758.0,1.193
759.0,1.172
760.0,0.2432
761.0,0.1377
762.0,0.6495
763.0,0.3534
764.0,0.5058
765.0,0.6501
766.0,0.7747
767.0,0.9545
768.0,1.083
769.0,1.102
770.0,1.135
771.0,1.142
772.0,1.144
773.0,1.152
774.0,1.147
775.0,1.138
776.0,1.152
777.0,1.137
778.0,1.13
779.0,1.131
780.0,1.125
781.0,1.126
782.0,1.134
783.0,1.114
784.0,1.119
785.0,1.111
786.0,1.124
787.0,1.106
788.0,1.094
789.0,1.094
790.0,1.067
791.0,1.074
792.0,1.066
793.0,1.049
794.0,1.064
795.0,1.083
796.0,1.054
797.0,1.055
798.0,1.083
799.0,1.077
800.0,1.059
801.0,1.057
802.0,1.054
803.0,1.046
804.0,1.047
805.0,1.043
806.0,1.071
807.0,1.058
808.0,1.059
809.0,1.041
810.0,1.033
811.0,1.037
812.0,1.01
813.0,0.9905
814.0,0.8805
815.0,0.8749
816.0,0.8157
817.0,0.8297
818.0,0.8007
819.0,0.8874
820.0,0.8389
821.0,0.97
822.0,0.9441
823.0,0.6592
824.0,0.9205
825.0,0.954
826.0,0.9212
827.0,0.9688
828.0,0.831
829.0,0.9152
830.0,0.9043
831.0,0.9072
832.0,0.8812
833.0,0.9327
834.0,0.9029
835.0,0.9852
836.0,0.9473
837.0,0.9879
838.0,0.9591
839.0,0.9728
840.0,0.9937
841.0,0.9805
842.0,0.9815
843.0,0.9798
844.0,0.9669
845.0,0.9987
846.0,0.9942
847.0,0.9754
848.0,0.97
849.0,0.9426
850.0,0.903
851.0,0.9568
852.0,0.9499
853.0,0.914
854.0,0.7896
855.0,0.867
856.0,0.9478
857.0,0.9687
858.0,0.9617
859.0,0.9624
860.0,0.9641
861.0,0.959
862.0,0.974
863.0,0.9971
864.0,0.9473
865.0,0.939
866.0,0.8444
867.0,0.8813
868.0,0.959
869.0,0.9392
870.0,0.966
871.0,0.953
872.0,0.9496
873.0,0.9478
874.0,0.9366
875.0,0.9177
876.0,0.9274
877.0,0.9368
878.0,0.9471
879.0,0.9326
880.0,0.9127
881.0,0.8993
882.0,0.9189
883.0,0.9216
884.0,0.9176
885.0,0.9246
886.0,0.8821
887.0,0.8908
888.0,0.9044
889.0,0.9141
890.0,0.9074
891.0,0.9054
892.0,0.8805
893.0,0.8544
894.0,0.8271
895.0,0.785
896.0,0.7411
897.0,0.6412
898.0,0.6971
899.0,0.536
900.0,0.7111
901.0,0.5615
902.0,0.6517
903.0,0.6605
904.0,0.8214
905.0,0.7947
906.0,0.745
907.0,0.6122
908.0,0.6233
909.0,0.6721
910.0,0.6001
911.0,0.6362
912.0,0.6638
913.0,0.6094
914.0,0.6032
915.0,0.6534
916.0,0.5549
917.0,0.6979
918.0,0.5691
919.0,0.7092
920.0,0.7135
921.0,0.7415
922.0,0.667
923.0,0.7161
924.0,0.684
925.0,0.6692
926.0,0.6766
927.0,0.7536
928.0,0.5637
929.0,0.5175
930.0,0.4111
931.0,0.3889
932.0,0.2844
933.0,0.2335
934.0,0.1328
935.0,0.2371
936.0,0.151
937.0,0.1535
938.0,0.1875
939.0,0.3769
940.0,0.4504
941.0,0.344
942.0,0.3959
943.0,0.2635
944.0,0.2748
945.0,0.3541
946.0,0.1844
947.0,0.3568
948.0,0.2628
949.0,0.4734
950.0,0.1379
951.0,0.4655
952.0,0.2555
953.0,0.3265
954.0,0.3965
955.0,0.3299
956.0,0.3182
957.0,0.2565
958.0,0.4455
959.0,0.3582
960.0,0.4013
961.0,0.4472
962.0,0.4236
963.0,0.4855
964.0,0.4457
965.0,0.4834
966.0,0.4842
967.0,0.4824
968.0,0.6369
969.0,0.6661
970.0,0.6131
971.0,0.6975
972.0,0.6681
973.0,0.586
974.0,0.5569
975.0,0.5764
976.0,0.5496
977.0,0.621
978.0,0.5918
979.0,0.6185
980.0,0.5824
981.0,0.6936
982.0,0.6648
983.0,0.6392
984.0,0.713
985.0,0.6623
986.0,0.7245
987.0,0.7115
988.0,0.7102
989.0,0.7217
990.0,0.706
991.0,0.7241
992.0,0.7282
993.0,0.7132
994.0,0.7279
995.0,0.7269
996.0,0.7239
997.0,0.7249
998.0,0.7216
999.0,0.7189
1000.0,0.7141
1001.0,0.7228
1002.0,0.704
1003.0,0.7101
1004.0,0.6931
1005.0,0.6673
1006.0,0.6936
1007.0,0.7083
1008.0,0.7046
1009.0,0.7011
1010.0,0.6983
1011.0,0.7048
1012.0,0.6989
1013.0,0.703
1014.0,0.6981
1015.0,0.6936
1016.0,0.6905
1017.0,0.6923
1018.0,0.6896
1019.0,0.6753
1020.0,0.6861
1021.0,0.6851
1022.0,0.68
1023.0,0.6872
1024.0,0.6787
1025.0,0.6867
1026.0,0.6839
1027.0,0.6823
1028.0,0.6809
1029.0,0.6729
1030.0,0.6774
1031.0,0.6748
1032.0,0.6728
1033.0,0.6627
1034.0,0.6628
1035.0,0.6648
1036.0,0.6684
1037.0,0.6575
1038.0,0.6605
1039.0,0.6601
1040.0,0.6575
1041.0,0.6602
1042.0,0.6556
1043.0,0.6536
1044.0,0.6559
1045.0,0.647
1046.0,0.6399
1047.0,0.6457
1048.0,0.6493
1049.0,0.647
1050.0,0.6441
1051.0,0.6433
1052.0,0.6407
1053.0,0.6357
1054.0,0.6371
1055.0,0.6376
1056.0,0.6354
1057.0,0.6335
1058.0,0.618
1059.0,0.6188
1060.0,0.6179
1061.0,0.6172
1062.0,0.6205
1063.0,0.6145
1064.0,0.6217
1065.0,0.6174
1066.0,0.6051
1067.0,0.613
1068.0,0.5997
1069.0,0.5812
1070.0,0.601
1071.0,0.61
1072.0,0.6033
1073.0,0.5945
1074.0,0.6095
1075.0,0.5801
1076.0,0.6091
1077.0,0.5989
1078.0,0.5878
1079.0,0.5993
1080.0,0.5897
1081.0,0.5713
1082.0,0.5796
1083.0,0.5812
1084.0,0.5703
1085.0,0.591
1086.0,0.5411
1087.0,0.5572
1088.0,0.5808
1089.0,0.5641
1090.0,0.5524
1091.0,0.5793
1092.0,0.5776
1093.0,0.4929
1094.0,0.5289
1095.0,0.5131
1096.0,0.4923
1097.0,0.5642
1098.0,0.485
1099.0,0.5054
1100.0,0.4712
1101.0,0.4767
1102.0,0.4562
1103.0,0.4524
1104.0,0.4529
1105.0,0.4942
1106.0,0.3834
1107.0,0.4704
1108.0,0.402
1109.0,0.4021
1110.0,0.4668
1111.0,0.321
1112.0,0.3988
1113.0,0.2584
1114.0,0.2883
1115.0,0.2392
1116.0,0.1936
1117.0,0.07397
1118.0,0.2097
1119.0,0.1063
1120.0,0.134
1121.0,0.1764
1122.0,0.07618
1123.0,0.121
1124.0,0.1022
1125.0,0.1327
1126.0,0.04811
1127.0,0.1495
1128.0,0.09152
1129.0,0.09682
1130.0,0.06454
1131.0,0.2786
1132.0,0.2195
1133.0,0.1418
1134.0,0.03778
1135.0,0.01408
1136.0,0.1192
1137.0,0.2745
1138.0,0.194
1139.0,0.2842
1140.0,0.2394
1141.0,0.1843
1142.0,0.211
1143.0,0.2975
1144.0,0.1065
1145.0,0.1367
1146.0,0.1475
1147.0,0.05385
1148.0,0.2576
1149.0,0.2072
1150.0,0.1143
1151.0,0.1926
1152.0,0.2352
1153.0,0.2278
1154.0,0.1328
1155.0,0.2966
1156.0,0.2681
1157.0,0.2993
1158.0,0.296
1159.0,0.3179
1160.0,0.2733
1161.0,0.3335
1162.0,0.3354
1163.0,0.447
1164.0,0.3857
1165.0,0.3659
1166.0,0.3619
1167.0,0.3931
1168.0,0.3979
1169.0,0.4066
1170.0,0.44
1171.0,0.4293
1172.0,0.436
1173.0,0.4391
1174.0,0.3188
1175.0,0.4281
1176.0,0.4679
1177.0,0.451
1178.0,0.3428
1179.0,0.4716
1180.0,0.424
1181.0,0.4372
1182.0,0.3063
1183.0,0.4299
1184.0,0.4044
1185.0,0.3916
1186.0,0.4597
1187.0,0.4393
1188.0,0.3119
1189.0,0.4096
1190.0,0.4493
1191.0,0.4291
1192.0,0.4553
1193.0,0.4372
1194.0,0.45
1195.0,0.4274
1196.0,0.4127
1197.0,0.4493
1198.0,0.4124
1199.0,0.3548
1200.0,0.4319
1201.0,0.4179
1202.0,0.4147
1203.0,0.4113
1204.0,0.3619
1205.0,0.4231
1206.0,0.4651
1207.0,0.414
1208.0,0.4063
1209.0,0.4144
1210.0,0.4307
1211.0,0.4118
1212.0,0.4087
1213.0,0.4508
1214.0,0.4176
1215.0,0.4101
1216.0,0.4492
1217.0,0.4382
1218.0,0.4457
1219.0,0.4406
1220.0,0.446
1221.0,0.45
1222.0,0.4388
1223.0,0.4351
1224.0,0.433
1225.0,0.4472
1226.0,0.4497
1227.0,0.417
1228.0,0.4515
1229.0,0.4498
1230.0,0.4425
1231.0,0.4537
1232.0,0.4511
1233.0,0.4374
1234.0,0.453
1235.0,0.4504
1236.0,0.4535
1237.0,0.4479
1238.0,0.452
1239.0,0.4462
1240.0,0.4478
1241.0,0.4461
1242.0,0.4448
1243.0,0.4411
1244.0,0.4444
1245.0,0.4462
1246.0,0.4436
1247.0,0.442
1248.0,0.442
1249.0,0.4432
1250.0,0.4406
1251.0,0.4352
1252.0,0.435
1253.0,0.4321
1254.0,0.4282
1255.0,0.4347
1256.0,0.4236
1257.0,0.4215
1258.0,0.4285
1259.0,0.4147
1260.0,0.4167
1261.0,0.3955
1262.0,0.3847
1263.0,0.3855
1264.0,0.3585
1265.0,0.383
1266.0,0.3701
1267.0,0.3756
1268.0,0.3579
1269.0,0.2336
1270.0,0.3746
1271.0,0.3939
1272.0,0.395
1273.0,0.391
1274.0,0.392
1275.0,0.3972
1276.0,0.4007
1277.0,0.4028
1278.0,0.4097
1279.0,0.4061
1280.0,0.4009
1281.0,0.3821
1282.0,0.3675
1283.0,0.396
1284.0,0.4056
1285.0,0.4082
1286.0,0.4133
1287.0,0.4076
1288.0,0.4073
1289.0,0.3958
1290.0,0.4037
1291.0,0.4091
1292.0,0.3869
1293.0,0.4018
1294.0,0.3991
1295.0,0.3978
1296.0,0.3814
1297.0,0.362
1298.0,0.3871
1299.0,0.402
1300.0,0.3447
1301.0,0.3544
1302.0,0.3858
1303.0,0.3397
1304.0,0.2938
1305.0,0.3782
1306.0,0.3785
1307.0,0.2987
1308.0,0.3396
1309.0,0.376
1310.0,0.2932
1311.0,0.3265
1312.0,0.3183
1313.0,0.3128
1314.0,0.2814
1315.0,0.2787
1316.0,0.322
1317.0,0.3055
1318.0,0.3304
1319.0,0.2629
1320.0,0.2538
1321.0,0.294
1322.0,0.2976
1323.0,0.2277
1324.0,0.2579
1325.0,0.3177
1326.0,0.2751
1327.0,0.263
1328.0,0.228
1329.0,0.1743
1330.0,0.2253
1331.0,0.1396
1332.0,0.143
1333.0,0.1981
1334.0,0.1662
1335.0,0.2269
1336.0,0.1813
1337.0,0.1613
1338.0,0.1745
1339.0,0.1732
1340.0,0.1676
1341.0,0.1657
1342.0,0.1739
1343.0,0.1221
1344.0,0.07291
1345.0,0.1048
1346.0,0.05485
1347.0,0.05624
1348.0,0.004168
1349.0,0.01441
1350.0,0.01456
1351.0,0.003989
1352.0,0.001225
1353.0,7.223e-05
1354.0,0.000227
1355.0,2.459e-06
1356.0,3.569e-05
1357.0,5.415e-05
1358.0,2.879e-06
1359.0,4.523e-07
1360.0,1.425e-06
1361.0,2.55e-09
1362.0,8.586e-12
1363.0,2.053e-06
1364.0,8.646e-07
1365.0,3.884e-12
1366.0,8.462e-06
1367.0,3.35e-06
1368.0,4.971e-14
1369.0,3.277e-07
1370.0,1.774e-07
1371.0,1.133e-08
1372.0,1.844e-06
1373.0,3.203e-05
1374.0,0.0001345
1375.0,0.000245
1376.0,0.0002033
1377.0,9.534e-05
1378.0,0.0008896
1379.0,4.026e-05
1380.0,6.165e-05
1381.0,1.72e-06
1382.0,1.708e-06
1383.0,2.799e-08
1384.0,3.845e-07
1385.0,1.458e-06
1386.0,1.622e-06
1387.0,0.000148
1388.0,2.955e-06
1389.0,0.0004501
1390.0,0.0003876
1391.0,0.0002647
1392.0,1.788e-05
1393.0,8.974e-05
1394.0,5.45e-05
1395.0,4.538e-07
1396.0,3.453e-09
1397.0,3.726e-05
1398.0,0.00101
1399.0,0.0006395
1400.0,1.686e-09
1401.0,5.942e-09
1402.0,0.001557
1403.0,0.002006
1404.0,0.0006182
1405.0,2.393e-07
1406.0,0.001677
1407.0,0.0001444
1408.0,0.001362
1409.0,0.0004925
1410.0,0.0003771
1411.0,0.001756
1412.0,0.002289
1413.0,0.02129
1414.0,0.000295
1415.0,0.0001467
1416.0,0.03323
1417.0,0.01059
1418.0,0.01213
1419.0,0.001907
1420.0,0.007441
1421.0,0.008059
1422.0,0.04323
1423.0,0.008516
1424.0,0.01583
1425.0,0.0235
1426.0,0.02619
1427.0,0.04708
1428.0,0.003956
1429.0,0.03569
1430.0,0.05966
1431.0,0.06525
1432.0,0.003128
1433.0,0.04188
1434.0,0.02149
1435.0,0.02212
1436.0,0.0417
1437.0,0.03195
1438.0,0.01376
1439.0,0.05629
1440.0,0.0422
1441.0,0.03261
1442.0,0.0361
1443.0,0.04466
1444.0,0.06157
1445.0,0.04871
1446.0,0.02207
1447.0,0.03474
1448.0,0.1141
1449.0,0.09953
1450.0,0.02574
1451.0,0.01045
1452.0,0.06034
1453.0,0.079
1454.0,0.1343
1455.0,0.06381
1456.0,0.08597
1457.0,0.1146
1458.0,0.1344
1459.0,0.1591
1460.0,0.08319
1461.0,0.08718
1462.0,0.1273
1463.0,0.04149
1464.0,0.1503
1465.0,0.09068
1466.0,0.06327
1467.0,0.03364
1468.0,0.07445
1469.0,0.09148
1470.0,0.04636
1471.0,0.01682
1472.0,0.04439
1473.0,0.06683
1474.0,0.09627
1475.0,0.1807
1476.0,0.06627
1477.0,0.06695
1478.0,0.06148
1479.0,0.1179
1480.0,0.05781
1481.0,0.1128
1482.0,0.05602
1483.0,0.146
1484.0,0.1358
1485.0,0.1214
1486.0,0.1197
1487.0,0.05569
1488.0,0.096
1489.0,0.1869
1490.0,0.1724
1491.0,0.1944
1492.0,0.1622
1493.0,0.1782
1494.0,0.1997
1495.0,0.1777
1496.0,0.1666
1497.0,0.2257
1498.0,0.1857
1499.0,0.2164
1500.0,0.247
1501.0,0.2598
1502.0,0.2195
1503.0,0.1882
1504.0,0.1522
1505.0,0.1818
1506.0,0.2583
1507.0,0.2497
1508.0,0.2379
1509.0,0.1848
1510.0,0.2681
1511.0,0.2601
1512.0,0.2569
1513.0,0.2378
1514.0,0.2232
1515.0,0.2635
1516.0,0.2528
1517.0,0.2481
1518.0,0.2473
1519.0,0.2425
1520.0,0.2594
1521.0,0.274
1522.0,0.2622
1523.0,0.2779
1524.0,0.2707
1525.0,0.2601
1526.0,0.2639
1527.0,0.2617
1528.0,0.2769
1529.0,0.2639
1530.0,0.2596
1531.0,0.267
1532.0,0.276
1533.0,0.2758
1534.0,0.2713
1535.0,0.2706
1536.0,0.2753
1537.0,0.27
1538.0,0.272
1539.0,0.2679
1540.0,0.2682
1541.0,0.2704
1542.0,0.2682
1543.0,0.2726
1544.0,0.27
1545.0,0.2745
1546.0,0.2706
1547.0,0.2665
1548.0,0.2664
1549.0,0.2685
1550.0,0.2667
1551.0,0.2688
1552.0,0.2672
1553.0,0.2651
1554.0,0.2629
1555.0,0.2635
1556.0,0.2634
1557.0,0.2665
1558.0,0.2651
1559.0,0.2634
1560.0,0.2652
1561.0,0.267
1562.0,0.2639
1563.0,0.2617
1564.0,0.2629
1565.0,0.2632
1566.0,0.2598
1567.0,0.2601
1568.0,0.2575
1569.0,0.2589
1570.0,0.2612
1571.0,0.2631
1572.0,0.2613
1573.0,0.2596
1574.0,0.2505
1575.0,0.2476
1576.0,0.2441
1577.0,0.238
1578.0,0.25
1579.0,0.2525
1580.0,0.2545
1581.0,0.2507
1582.0,0.2455
1583.0,0.2467
1584.0,0.2506
1585.0,0.2532
1586.0,0.2504
1587.0,0.2462
1588.0,0.2388
1589.0,0.2313
1590.0,0.2367
1591.0,0.2424
1592.0,0.2498
1593.0,0.2534
1594.0,0.2532
1595.0,0.2498
1596.0,0.2425
1597.0,0.2489
1598.0,0.2519
1599.0,0.2491
1600.0,0.2473
1601.0,0.244
1602.0,0.2449
1603.0,0.2471
1604.0,0.2452
1605.0,0.245
1606.0,0.2423
1607.0,0.2444
1608.0,0.2445
1609.0,0.2378
1610.0,0.2329
1611.0,0.2371
1612.0,0.2396
1613.0,0.2403
1614.0,0.2402
1615.0,0.2347
1616.0,0.2311
1617.0,0.2357
1618.0,0.2396
1619.0,0.2355
1620.0,0.2302
1621.0,0.2329
1622.0,0.2366
1623.0,0.24
1624.0,0.2374
1625.0,0.2364
1626.0,0.2371
1627.0,0.2388
1628.0,0.2383
1629.0,0.2361
1630.0,0.2348
1631.0,0.2337
1632.0,0.2331
1633.0,0.2266
1634.0,0.231
1635.0,0.2286
1636.0,0.2262
1637.0,0.2235
1638.0,0.2116
1639.0,0.2187
1640.0,0.2109
1641.0,0.2173
1642.0,0.2213
1643.0,0.2111
1644.0,0.2211
1645.0,0.2162
1646.0,0.2122
1647.0,0.2247
1648.0,0.2113
1649.0,0.2197
1650.0,0.2212
1651.0,0.2076
1652.0,0.2195
1653.0,0.2212
1654.0,0.2113
1655.0,0.2213
1656.0,0.2184
1657.0,0.2197
1658.0,0.2219
1659.0,0.2204
1660.0,0.2224
1661.0,0.2214
1662.0,0.216
1663.0,0.2201
1664.0,0.2184
1665.0,0.2078
1666.0,0.175
1667.0,0.2059
1668.0,0.212
1669.0,0.2137
1670.0,0.2171
1671.0,0.2112
1672.0,0.2084
1673.0,0.2131
1674.0,0.2093
1675.0,0.2059
1676.0,0.2072
1677.0,0.2072
1678.0,0.2019
1679.0,0.2049
1680.0,0.1968
1681.0,0.1914
1682.0,0.2012
1683.0,0.2056
1684.0,0.1931
1685.0,0.208
1686.0,0.2074
1687.0,0.2008
1688.0,0.2064
1689.0,0.2042
1690.0,0.204
1691.0,0.1886
1692.0,0.2036
1693.0,0.2085
1694.0,0.2017
1695.0,0.2064
1696.0,0.2063
1697.0,0.1775
1698.0,0.2047
1699.0,0.202
1700.0,0.1971
1702.0,0.1999
1705.0,0.1947
1710.0,0.1852
1715.0,0.1856
1720.0,0.1835
1725.0,0.1725
1730.0,0.1706
1735.0,0.1594
1740.0,0.1619
1745.0,0.1527
1750.0,0.1627
1755.0,0.1505
1760.0,0.1567
1765.0,0.1297
1770.0,0.1385
1775.0,0.1125
1780.0,0.09711
1785.0,0.07411
1790.0,0.08562
1795.0,0.04433
1800.0,0.03044
1805.0,0.0134
1810.0,0.008736
1815.0,0.002902
1820.0,0.0007987
1825.0,0.001046
1830.0,3.667e-06
1835.0,4.87e-06
1840.0,4.02e-08
1845.0,4.147e-06
1850.0,1.954e-06
1855.0,1.859e-07
1860.0,8.273e-06
1865.0,1.232e-05
1870.0,1.376e-10
1875.0,2.431e-10
1880.0,5.896e-05
1885.0,3.285e-05
1890.0,0.0001741
1895.0,0.0001005
1900.0,5.788e-07
1905.0,3.87e-07
1910.0,1.684e-05
1915.0,1.513e-05
1920.0,0.0003607
1925.0,0.0007793
1930.0,0.0004571
1935.0,0.003124
1940.0,0.002973
1945.0,0.01161
1950.0,0.02191
1955.0,0.02022
1960.0,0.03408
1965.0,0.04874
1970.0,0.06736
1975.0,0.0759
1980.0,0.07621
1985.0,0.0816
1990.0,0.08433
1995.0,0.08871
2000.0,0.09317
2005.0,0.07973
2010.0,0.111
2015.0,0.08953
2020.0,0.09535
2025.0,0.103
2030.0,0.09558
2035.0,0.1032
2040.0,0.09909
2045.0,0.1021
2050.0,0.1034
2055.0,0.09963
2060.0,0.09661
2065.0,0.09811
2070.0,0.09712
2075.0,0.09911
2080.0,0.09669
2085.0,0.09612
2090.0,0.09689
2095.0,0.0942
2100.0,0.08863
2105.0,0.09491
2110.0,0.09127
2115.0,0.09315
2120.0,0.08797
2125.0,0.08901
2130.0,0.08994
2135.0,0.09034
2140.0,0.09094
2145.0,0.09002
2150.0,0.08502
2155.0,0.08493
2160.0,0.08398
2165.0,0.07679
2170.0,0.08155
2175.0,0.07994
2180.0,0.08175
2185.0,0.07399
2190.0,0.07914
2195.0,0.0785
2200.0,0.07016
2205.0,0.07325
2210.0,0.07875
2215.0,0.07566
2220.0,0.07712
2225.0,0.07496
2230.0,0.0753
2235.0,0.07362
2240.0,0.07279
2245.0,0.07026
2250.0,0.07166
2255.0,0.06735
2260.0,0.06642
2265.0,0.06794
2270.0,0.06433
2275.0,0.0634
2280.0,0.06597
2285.0,0.06218
2290.0,0.06218
2295.0,0.06052
2300.0,0.05769
2305.0,0.05812
2310.0,0.06319
2315.0,0.05705
2320.0,0.05047
2325.0,0.05566
2330.0,0.05581
2335.0,0.057
2340.0,0.04478
2345.0,0.05026
2350.0,0.04016
2355.0,0.04641
2360.0,0.04911
2365.0,0.0484
2370.0,0.02928
2375.0,0.04304
2380.0,0.04114
2385.0,0.02981
2390.0,0.03524
2395.0,0.03876
2400.0,0.04232
2405.0,0.0323
2410.0,0.03243
2415.0,0.02623
2420.0,0.02534
2425.0,0.03178
2430.0,0.04305
2435.0,0.01407
2440.0,0.04196
2445.0,0.01982
2450.0,0.01285
2455.0,0.02385
2460.0,0.03202
2465.0,0.02302
2470.0,0.01576
2475.0,0.01545
2480.0,0.007467
2485.0,0.005117
2490.0,0.003114
2495.0,0.00271
2500.0,0.006461
2505.0,0.001373
2510.0,0.002023
2515.0,0.0004636
2520.0,0.0003099
2525.0,3.519e-05
2530.0,4.17e-07
2535.0,1.076e-07
2540.0,2.382e-07
2545.0,2.784e-11
2550.0,1.388e-13
2555.0,5.454e-10
2560.0,1.628e-11
2565.0,6.415e-15
2570.0,4.241e-19
2575.0,1.3920000000000001e-28
2580.0,7.006e-23
2585.0,1.174e-35
2590.0,4.68e-32
2595.0,3.15e-34
2600.0,4.7849999999999997e-29
2605.0,5.806e-36
2610.0,4.262e-35
2615.0,6.345e-39
2620.0,8.141e-30
2625.0,3.684e-29
2630.0,0.0
2635.0,1.339e-16
2640.0,3.668e-17
2645.0,2.335e-19
2650.0,3.2480000000000003e-20
2655.0,1.546e-28
2660.0,5.370000000000001e-26
2665.0,2.721e-38
2670.0,0.0
2675.0,1.4729999999999999e-37
2680.0,9.071000000000001e-25
2685.0,1.0240000000000001e-25
2690.0,6.22e-25
2695.0,1.708e-27
2700.0,4.195e-23
2705.0,1.0170000000000001e-20
2710.0,6.873e-26
2715.0,1.789e-23
2720.0,8.408e-45
2725.0,1.285e-21
2730.0,6.038e-19
2735.0,6.499e-21
2740.0,1.3650000000000002e-26
2745.0,1.291e-21
2750.0,7.349e-21
2755.0,1.325e-22
2760.0,1.168e-17
2765.0,1.0539999999999999e-23
2770.0,4.1670000000000004e-21
2775.0,4.093e-18
2780.0,9.219e-16
2785.0,2.426e-15
2790.0,6.586e-13
2795.0,1.935e-13
2800.0,2.596e-10
2805.0,4.934e-12
2810.0,1.627e-08
2815.0,4.948e-09
2820.0,7.413e-11
2825.0,4.516e-07
2830.0,7.821e-06
2835.0,2.088e-10
2840.0,2.724e-07
2845.0,6.674e-05
2850.0,1.535e-06
2855.0,5.222e-07
2860.0,2.565e-05
2865.0,0.0001713
2870.0,5.555e-06
2875.0,0.000389
2880.0,0.0002367
2885.0,0.000409
2890.0,0.0001683
2895.0,0.002546
2900.0,0.0007533
2905.0,9.786e-05
2910.0,0.002606
2915.0,0.001177
2920.0,0.002781
2925.0,0.001025
2930.0,0.005805
2935.0,0.006426
2940.0,0.001556
2945.0,0.001376
2950.0,0.005159
2955.0,0.002307
2960.0,0.004577
2965.0,0.007552
2970.0,0.0003401
2975.0,0.000843
2980.0,0.001318
2985.0,0.007088
2990.0,0.01047
2995.0,0.004253
3000.0,0.007829
3005.0,0.002829
3010.0,0.006922
3015.0,0.005547
3020.0,0.0005886
3025.0,0.007542
3030.0,0.00604
3035.0,0.002414
3040.0,0.001929
3045.0,0.004079
3050.0,0.0009791
3055.0,0.0002626
3060.0,0.006208
3065.0,0.002795
3070.0,0.001646
3075.0,0.005924
3080.0,0.003532
3085.0,0.001673
3090.0,0.002268
3095.0,0.0006038
3100.0,0.004328
3105.0,0.0008777
3110.0,0.000785
3115.0,0.002184
3120.0,0.00989
3125.0,0.003011
3130.0,0.005818
3135.0,0.01161
3140.0,0.003286
3145.0,0.003222
3150.0,0.006665
3155.0,0.005641
3160.0,0.009292
3165.0,0.01423
3170.0,0.01272
3175.0,0.009213
3180.0,0.01075
3185.0,0.007908
3190.0,0.004178
3195.0,0.002526
3200.0,0.0003949
3205.0,0.0002721
3210.0,0.0001174
3215.0,0.0004464
3220.0,0.001473
3225.0,0.0001799
3230.0,0.0003019
3235.0,0.007133
3240.0,0.00348
3245.0,0.0006836
3250.0,0.002434
3255.0,0.009775
3260.0,0.001112
3265.0,0.002318
3270.0,0.001106
3275.0,0.005744
3280.0,0.002693
3285.0,0.01098
3290.0,0.008432
3295.0,0.001131
3300.0,0.001658
3305.0,0.00377
3310.0,0.003678
3315.0,9.468e-06
3320.0,4.632e-05
3325.0,0.003256
3330.0,0.004617
3335.0,0.008958
3340.0,0.003418
3345.0,0.003416
3350.0,0.008099
3355.0,0.003517
3360.0,0.005235
3365.0,0.007245
3370.0,0.003771
3375.0,0.00856
3380.0,0.004935
3385.0,0.007514
3390.0,0.009861
3395.0,0.009561
3400.0,0.01269
3405.0,0.004261
3410.0,0.007118
3415.0,0.007098
3420.0,0.01345
3425.0,0.009975
3430.0,0.008579
3435.0,0.01182
3440.0,0.007942
3445.0,0.01145
3450.0,0.01128
3455.0,0.008263
3460.0,0.01277
3465.0,0.009767
3470.0,0.01247
3475.0,0.01103
3480.0,0.01132
3485.0,0.01226
3490.0,0.01045
3495.0,0.01241
3500.0,0.01207
3505.0,0.01198
3510.0,0.01215
3515.0,0.01162
3520.0,0.01231
3525.0,0.01153
3530.0,0.01124
3535.0,0.009389
3540.0,0.008954
3545.0,0.009474
3550.0,0.01057
3555.0,0.009031
3560.0,0.01085
3565.0,0.01086
3570.0,0.008311
3575.0,0.008587
3580.0,0.01022
3585.0,0.009123
3590.0,0.009472
3595.0,0.009694
3600.0,0.01033
3605.0,0.01036
3610.0,0.009495
3615.0,0.009508
3620.0,0.01172
3625.0,0.01021
3630.0,0.00998
3635.0,0.01031
3640.0,0.01154
3645.0,0.01054
3650.0,0.01007
3655.0,0.01094
3660.0,0.0109
3665.0,0.01017
3670.0,0.007815
3675.0,0.004657
3680.0,0.008171
3685.0,0.009319
3690.0,0.009633
3695.0,0.01002
3700.0,0.0108
3705.0,0.01066
3710.0,0.009254
3715.0,0.00912
3720.0,0.01035
3725.0,0.01064
3730.0,0.009202
3735.0,0.008407
3740.0,0.008635
3745.0,0.01011
3750.0,0.009182
3755.0,0.008898
3760.0,0.008797
3765.0,0.008474
3770.0,0.009086
3775.0,0.00898
3780.0,0.009535
3785.0,0.00873
3790.0,0.007681
3795.0,0.008805
3800.0,0.009898
3805.0,0.009293
3810.0,0.008224
3815.0,0.00769
3820.0,0.009667
3825.0,0.00947
3830.0,0.009613
3835.0,0.007614
3840.0,0.008984
3845.0,0.008761
3850.0,0.008822
3855.0,0.008447
3860.0,0.007885
3865.0,0.007948
3870.0,0.007197
3875.0,0.006544
3880.0,0.006322
3885.0,0.006549
3890.0,0.006648
3895.0,0.007305
3900.0,0.007773
3905.0,0.007754
3910.0,0.006938
3915.0,0.006765
3920.0,0.006758
3925.0,0.006645
3930.0,0.006875
3935.0,0.007174
3940.0,0.007267
3945.0,0.007395
3950.0,0.007507
3955.0,0.007588
3960.0,0.007659
3965.0,0.007725
3970.0,0.007641
3975.0,0.007442
3980.0,0.007337
3985.0,0.007361
3990.0,0.007263
3995.0,0.007105
4000.0,0.006814
