interpolation:linear
wavelength,value
280.0,2.9619999999999996e-23
280.5,1.029e-21
281.0,5.608e-21
281.5,1.88e-19
282.0,1.542e-18
282.5,4.608e-18
283.0,1.381e-17
283.5,2.213e-17
284.0,3.637e-16
284.5,1.068e-15
285.0,9.433e-16
285.5,4.882e-15
286.0,1.983e-14
286.5,9.138e-14
287.0,2.657e-13
287.5,1.044e-12
288.0,8.334e-12
288.5,1.981e-11
289.0,4.64e-11
289.5,1.291e-10
290.0,3.418e-10
290.5,6.741e-10
291.0,1.405e-09
291.5,3.93e-09
292.0,7.457e-09
292.5,9.986e-09
293.0,2.038e-08
293.5,4.703e-08
294.0,7.05e-08
294.5,1.418e-08
295.0,2.386e-08
295.5,3.674e-08
296.0,6.486e-08
296.5,8.308e-08
297.0,1.045e-07
297.5,2.513e-07
298.0,3.603e-07
298.5,3.368e-07
299.0,6.907e-07
299.5,1.009e-06
300.0,1.032e-06
300.5,1.387e-06
301.0,2.225e-06
301.5,3.177e-06
302.0,2.569e-06
302.5,3.68e-06
303.0,6.537e-06
303.5,8.152e-06
304.0,7.595e-06
304.5,1.121e-05
305.0,1.717e-05
305.5,2.006e-05
306.0,1.961e-05
306.5,2.492e-05
307.0,3.913e-05
307.5,5.576e-05
308.0,5.964e-05
308.5,7.334e-05
309.0,6.487e-05
309.5,7.487e-05
310.0,7.657e-05
310.5,0.0001255
311.0,0.0001612
311.5,0.0001574
312.0,0.0001688
312.5,0.0002174
313.0,0.0002437
313.5,0.0002295
314.0,0.0003105
314.5,0.0003107
315.0,0.000418
315.5,0.0003285
316.0,0.0003226
316.5,0.0005312
317.0,0.0006579
317.5,0.0006581
318.0,0.0005647
318.5,0.0008476
319.0,0.001111
319.5,0.0007727
320.0,0.000912
320.5,0.001393
321.0,0.001499
321.5,0.001465
322.0,0.001274
322.5,0.00112
323.0,0.001272
323.5,0.003179
324.0,0.003859
324.5,0.00354
325.0,0.001639
325.5,0.002354
326.0,0.005477
326.5,0.006251
327.0,0.005915
327.5,0.005384
328.0,0.004033
328.5,0.005217
329.0,0.007523
329.5,0.009056
330.0,0.00871
330.5,0.005989
331.0,0.00585
331.5,0.006587
332.0,0.008362
332.5,0.008877
333.0,0.008498
333.5,0.006837
334.0,0.006865
334.5,0.009056
335.0,0.009172
335.5,0.0114
336.0,0.007884
336.5,0.008364
337.0,0.006492
337.5,0.00791
338.0,0.008602
338.5,0.01071
339.0,0.01068
339.5,0.01023
340.0,0.01117
340.5,0.01017
341.0,0.01061
341.5,0.009876
342.0,0.01185
342.5,0.01113
343.0,0.01214
343.5,0.01136
344.0,0.007844
344.5,0.008388
345.0,0.01129
345.5,0.0116
346.0,0.009908
346.5,0.01125
347.0,0.01199
347.5,0.009673
348.0,0.01113
348.5,0.01118
349.0,0.0104
349.5,0.01029
350.0,0.01274
350.5,0.01343
351.0,0.01195
351.5,0.01148
352.0,0.01242
352.5,0.009752
353.0,0.01233
353.5,0.01322
354.0,0.01375
354.5,0.01394
355.0,0.01387
355.5,0.01255
356.0,0.01315
356.5,0.01123
357.0,0.009279
357.5,0.01137
358.0,0.009018
358.5,0.007711
359.0,0.01078
359.5,0.01369
360.0,0.01453
360.5,0.01163
361.0,0.01062
361.5,0.01224
362.0,0.01059
362.5,0.01467
363.0,0.01318
363.5,0.01214
364.0,0.01485
364.5,0.01269
365.0,0.01293
365.5,0.01623
366.0,0.0172
366.5,0.01617
367.0,0.01575
367.5,0.01635
368.0,0.01431
368.5,0.01444
369.0,0.01559
369.5,0.01663
370.0,0.01773
370.5,0.01377
371.0,0.01471
371.5,0.01841
372.0,0.01222
372.5,0.01466
373.0,0.01492
373.5,0.009705
374.0,0.01411
374.5,0.01168
375.0,0.01136
375.5,0.01696
376.0,0.01407
376.5,0.01458
377.0,0.01544
377.5,0.01807
378.0,0.01959
378.5,0.01852
379.0,0.01529
379.5,0.01396
380.0,0.01452
380.5,0.01759
381.0,0.01763
381.5,0.01398
382.0,0.01242
382.5,0.01059
383.0,0.009805
383.5,0.009446
384.0,0.01042
384.5,0.01533
385.0,0.01521
385.5,0.01417
386.0,0.01214
386.5,0.01594
387.0,0.01325
387.5,0.01489
388.0,0.01375
388.5,0.01359
389.0,0.01467
389.5,0.01778
390.0,0.01784
390.5,0.01643
391.0,0.01934
391.5,0.01973
392.0,0.01662
392.5,0.01488
393.0,0.008284
393.5,0.006023
394.0,0.01226
394.5,0.01559
395.0,0.01902
395.5,0.01933
396.0,0.01676
396.5,0.009802
397.0,0.007359
397.5,0.01497
398.0,0.02097
398.5,0.02168
399.0,0.02348
399.5,0.02341
400.0,0.02431
401.0,0.02401
402.0,0.02534
403.0,0.02408
404.0,0.02372
405.0,0.02372
406.0,0.02334
407.0,0.02296
408.0,0.02385
409.0,0.02553
410.0,0.02231
411.0,0.02417
412.0,0.02598
413.0,0.02535
414.0,0.02567
415.0,0.02573
416.0,0.02618
417.0,0.02553
418.0,0.02506
419.0,0.02541
420.0,0.02531
421.0,0.02647
422.0,0.02515
423.0,0.02455
424.0,0.02594
425.0,0.02588
426.0,0.02522
427.0,0.02477
428.0,0.02416
429.0,0.0229
430.0,0.02005
431.0,0.01987
432.0,0.02563
433.0,0.02576
434.0,0.02393
435.0,0.02501
436.0,0.0282
437.0,0.02782
438.0,0.02531
439.0,0.02612
440.0,0.02691
441.0,0.02784
442.0,0.02983
443.0,0.02904
444.0,0.02972
445.0,0.02913
446.0,0.02787
447.0,0.03017
448.0,0.03062
449.0,0.03071
450.0,0.03154
451.0,0.0327
452.0,0.03154
453.0,0.0297
454.0,0.03103
455.0,0.03118
456.0,0.03189
457.0,0.03234
458.0,0.03112
459.0,0.03085
460.0,0.03083
461.0,0.03149
462.0,0.03176
463.0,0.03161
464.0,0.03122
465.0,0.03095
466.0,0.03132
467.0,0.03073
468.0,0.03103
469.0,0.03112
470.0,0.03009
471.0,0.03006
472.0,0.0317
473.0,0.0313
474.0,0.03131
475.0,0.03146
476.0,0.03034
477.0,0.03025
478.0,0.03096
479.0,0.03066
480.0,0.03061
481.0,0.03112
482.0,0.03129
483.0,0.031
484.0,0.03048
485.0,0.02918
486.0,0.02564
487.0,0.02696
488.0,0.02959
489.0,0.02963
490.0,0.03115
491.0,0.0306
492.0,0.02889
493.0,0.02986
494.0,0.03018
495.0,0.03045
496.0,0.03061
497.0,0.031
498.0,0.02942
499.0,0.02961
500.0,0.02857
501.0,0.02785
502.0,0.02719
503.0,0.02804
504.0,0.02696
505.0,0.02812
506.0,0.02904
507.0,0.02769
508.0,0.02697
509.0,0.02789
510.0,0.02789
511.0,0.02875
512.0,0.02912
513.0,0.02756
514.0,0.02735
515.0,0.02704
516.0,0.02694
517.0,0.02393
518.0,0.02514
519.0,0.02634
520.0,0.02725
521.0,0.02745
522.0,0.02737
523.0,0.02682
524.0,0.02759
525.0,0.0277
526.0,0.02635
527.0,0.02464
528.0,0.02592
529.0,0.02717
530.0,0.02666
531.0,0.02694
532.0,0.02596
533.0,0.02519
534.0,0.02598
535.0,0.02664
536.0,0.02698
537.0,0.02599
538.0,0.02646
539.0,0.02621
540.0,0.02504
541.0,0.02496
542.0,0.02566
543.0,0.0255
544.0,0.02575
545.0,0.02568
546.0,0.02565
547.0,0.02576
548.0,0.02554
549.0,0.02565
550.0,0.02596
551.0,0.02567
552.0,0.02586
553.0,0.02537
554.0,0.02596
555.0,0.02596
556.0,0.02557
557.0,0.02468
558.0,0.02437
559.0,0.02377
560.0,0.02392
561.0,0.02407
562.0,0.02373
563.0,0.0242
564.0,0.02339
565.0,0.02306
566.0,0.0226
567.0,0.02284
568.0,0.02223
569.0,0.02124
570.0,0.02119
571.0,0.0211
572.0,0.02124
573.0,0.02135
574.0,0.02115
575.0,0.02061
576.0,0.02041
577.0,0.02068
578.0,0.02056
579.0,0.02098
580.0,0.0219
581.0,0.02247
582.0,0.02325
583.0,0.02361
584.0,0.02403
585.0,0.02359
586.0,0.02317
587.0,0.02349
588.0,0.02234
589.0,0.01835
590.0,0.01908
591.0,0.0212
592.0,0.02027
593.0,0.02119
594.0,0.02088
595.0,0.01971
596.0,0.02194
597.0,0.021
598.0,0.02142
599.0,0.0216
600.0,0.02181
601.0,0.02187
602.0,0.02181
603.0,0.02239
604.0,0.02292
605.0,0.02297
606.0,0.023
607.0,0.02338
608.0,0.0233
609.0,0.02352
610.0,0.02355
611.0,0.02386
612.0,0.02396
613.0,0.02384
614.0,0.02368
615.0,0.02434
616.0,0.02367
617.0,0.02372
618.0,0.02474
619.0,0.02457
620.0,0.02477
621.0,0.02484
622.0,0.02458
623.0,0.0242
624.0,0.02373
625.0,0.02361
626.0,0.02383
627.0,0.0237
628.0,0.01754
629.0,0.02124
630.0,0.02057
631.0,0.02257
632.0,0.02272
633.0,0.02411
634.0,0.02453
635.0,0.0253
636.0,0.02533
637.0,0.02611
638.0,0.02688
639.0,0.02686
640.0,0.02698
641.0,0.02723
642.0,0.02744
643.0,0.02793
644.0,0.02813
645.0,0.02794
646.0,0.02673
647.0,0.02451
648.0,0.02508
649.0,0.02394
650.0,0.02649
651.0,0.02814
652.0,0.02508
653.0,0.02809
654.0,0.02794
655.0,0.02575
656.0,0.02349
657.0,0.02451
658.0,0.02809
659.0,0.02882
660.0,0.02913
661.0,0.03003
662.0,0.03067
663.0,0.03016
664.0,0.0306
665.0,0.03076
666.0,0.03099
667.0,0.03114
668.0,0.03145
669.0,0.03205
670.0,0.03208
671.0,0.03225
672.0,0.03213
673.0,0.03278
674.0,0.03281
675.0,0.03266
676.0,0.03303
677.0,0.03285
678.0,0.03308
679.0,0.03267
680.0,0.03302
681.0,0.03282
682.0,0.03282
683.0,0.03275
684.0,0.03252
685.0,0.03305
686.0,0.03255
687.0,0.00825
688.0,0.01074
689.0,0.01084
690.0,0.01242
691.0,0.01526
692.0,0.0188
693.0,0.01929
694.0,0.02083
695.0,0.02483
696.0,0.02508
697.0,0.03138
698.0,0.03011
699.0,0.02622
700.0,0.026
701.0,0.02431
702.0,0.02523
703.0,0.02664
704.0,0.02948
705.0,0.0289
706.0,0.02956
707.0,0.02995
708.0,0.03008
709.0,0.03157
710.0,0.03014
711.0,0.03085
712.0,0.03185
713.0,0.03028
714.0,0.03123
715.0,0.02886
716.0,0.02806
717.0,0.01576
718.0,0.01474
719.0,0.01348
720.0,0.01293
721.0,0.01766
722.0,0.02402
723.0,0.02077
724.0,0.01646
725.0,0.01554
726.0,0.01571
727.0,0.01862
728.0,0.01462
729.0,0.0176
730.0,0.01764
731.0,0.01629
732.0,0.02076
733.0,0.02466
734.0,0.02684
735.0,0.02574
736.0,0.02462
737.0,0.0252
738.0,0.02939
739.0,0.02893
740.0,0.03083
741.0,0.03113
742.0,0.03197
743.0,0.0329
744.0,0.03323
745.0,0.03385
746.0,0.03402
747.0,0.03426
748.0,0.03426
749.0,0.03394
750.0,0.03396
751.0,0.03363
752.0,0.03386
753.0,0.03412
754.0,0.03416
755.0,0.03391
756.0,0.03401
757.0,0.03402
758.0,0.03345
759.0,0.029
760.0,0.001463
761.0,0.0007803
762.0,0.004305
763.0,0.002181
764.0,0.003226
765.0,0.004256
766.0,0.005398
767.0,0.008679
768.0,0.01752
769.0,0.02151
770.0,0.02786
771.0,0.03123
772.0,0.0324
773.0,0.03293
774.0,0.03303
775.0,0.03298
776.0,0.0335
777.0,0.03311
778.0,0.03288
779.0,0.03293
780.0,0.03282
781.0,0.0329
782.0,0.03317
783.0,0.03267
784.0,0.03295
785.0,0.03249
786.0,0.03252
787.0,0.0294
788.0,0.02842
789.0,0.02846
790.0,0.02546
791.0,0.02779
792.0,0.02813
793.0,0.02745
794.0,0.03077
795.0,0.03061
796.0,0.02529
797.0,0.02556
798.0,0.03009
799.0,0.02926
800.0,0.02724
801.0,0.02641
802.0,0.02593
803.0,0.02469
804.0,0.02562
805.0,0.02686
806.0,0.03014
807.0,0.02948
808.0,0.0291
809.0,0.02652
810.0,0.02615
811.0,0.02349
812.0,0.02084
813.0,0.02012
814.0,0.01399
815.0,0.01426
816.0,0.01338
817.0,0.01331
818.0,0.01253
819.0,0.01527
820.0,0.0153
821.0,0.02206
822.0,0.01971
823.0,0.006998
824.0,0.01711
825.0,0.02334
826.0,0.01831
827.0,0.02224
828.0,0.01288
829.0,0.01978
830.0,0.01943
831.0,0.01896
832.0,0.0175
833.0,0.02043
834.0,0.01913
835.0,0.02557
836.0,0.02109
837.0,0.02532
838.0,0.02292
839.0,0.02522
840.0,0.02656
841.0,0.02503
842.0,0.02656
843.0,0.02889
844.0,0.02763
845.0,0.02941
846.0,0.03003
847.0,0.0299
848.0,0.02883
849.0,0.02814
850.0,0.02684
851.0,0.0275
852.0,0.02801
853.0,0.02752
854.0,0.02327
855.0,0.02626
856.0,0.02846
857.0,0.02969
858.0,0.02921
859.0,0.0298
860.0,0.03012
861.0,0.02985
862.0,0.03049
863.0,0.03119
864.0,0.02972
865.0,0.02955
866.0,0.02658
867.0,0.02776
868.0,0.03025
869.0,0.02968
870.0,0.03056
871.0,0.03012
872.0,0.03009
873.0,0.03005
874.0,0.02971
875.0,0.02905
876.0,0.02931
877.0,0.02964
878.0,0.02986
879.0,0.02942
880.0,0.02876
881.0,0.02791
882.0,0.02819
883.0,0.02883
884.0,0.02847
885.0,0.02849
886.0,0.02587
887.0,0.0274
888.0,0.02707
889.0,0.02867
890.0,0.02691
891.0,0.02769
892.0,0.02449
893.0,0.02281
894.0,0.01864
895.0,0.0146
896.0,0.01263
897.0,0.009241
898.0,0.01044
899.0,0.005714
900.0,0.0111
901.0,0.006138
902.0,0.007859
903.0,0.008207
904.0,0.01708
905.0,0.01556
906.0,0.01372
907.0,0.00722
908.0,0.00875
909.0,0.009448
910.0,0.006188
911.0,0.009119
912.0,0.01024
913.0,0.006341
914.0,0.007887
915.0,0.00669
916.0,0.006319
917.0,0.009215
918.0,0.005925
919.0,0.009936
920.0,0.01371
921.0,0.01341
922.0,0.009947
923.0,0.01324
924.0,0.009299
925.0,0.008663
926.0,0.008848
927.0,0.01101
928.0,0.003846
929.0,0.002937
930.0,0.001645
931.0,0.001482
932.0,0.0009816
933.0,0.0007771
934.0,0.0004176
935.0,0.0007896
936.0,0.0004859
937.0,0.0004906
938.0,0.0006013
939.0,0.001397
940.0,0.001872
941.0,0.001209
942.0,0.001433
943.0,0.000877
944.0,0.0009747
945.0,0.001249
946.0,0.0005788
947.0,0.001219
948.0,0.0008981
949.0,0.001813
950.0,0.0004177
951.0,0.001755
952.0,0.0008674
953.0,0.001155
954.0,0.001484
955.0,0.001329
956.0,0.00158
957.0,0.0008676
958.0,0.002437
959.0,0.001486
960.0,0.001783
961.0,0.002419
962.0,0.002282
963.0,0.003505
964.0,0.002985
965.0,0.003037
966.0,0.003662
967.0,0.003654
968.0,0.01196
969.0,0.009372
970.0,0.009399
971.0,0.0131
972.0,0.01196
973.0,0.00666
974.0,0.00642
975.0,0.007542
976.0,0.005847
977.0,0.01142
978.0,0.007905
979.0,0.009258
980.0,0.008785
981.0,0.01366
982.0,0.01215
983.0,0.01069
984.0,0.01733
985.0,0.0114
986.0,0.02062
987.0,0.01733
988.0,0.01841
989.0,0.02225
990.0,0.01703
991.0,0.02215
992.0,0.02255
993.0,0.01938
994.0,0.02296
995.0,0.02352
996.0,0.02286
997.0,0.02309
998.0,0.02276
999.0,0.02286
1000.0,0.02209
1001.0,0.02313
1002.0,0.01897
1003.0,0.02262
1004.0,0.02089
1005.0,0.02137
1006.0,0.02203
1007.0,0.02244
1008.0,0.02193
1009.0,0.02123
1010.0,0.021
1011.0,0.0223
1012.0,0.02186
1013.0,0.02259
1014.0,0.02243
1015.0,0.02224
1016.0,0.022
1017.0,0.02185
1018.0,0.02228
1019.0,0.02039
1020.0,0.02199
1021.0,0.02218
1022.0,0.02152
1023.0,0.02185
1024.0,0.0203
1025.0,0.02209
1026.0,0.02152
1027.0,0.02178
1028.0,0.0216
1029.0,0.02104
1030.0,0.02168
1031.0,0.02151
1032.0,0.02149
1033.0,0.02123
1034.0,0.02122
1035.0,0.02131
1036.0,0.02118
1037.0,0.02094
1038.0,0.02096
1039.0,0.02083
1040.0,0.02071
1041.0,0.02064
1042.0,0.02048
1043.0,0.02032
1044.0,0.02028
1045.0,0.01991
1046.0,0.01958
1047.0,0.01963
1048.0,0.01961
1049.0,0.01941
1050.0,0.01917
1051.0,0.01896
1052.0,0.01872
1053.0,0.01837
1054.0,0.0182
1055.0,0.01796
1056.0,0.01762
1057.0,0.01736
1058.0,0.01673
1059.0,0.01649
1060.0,0.01635
1061.0,0.01619
1062.0,0.01609
1063.0,0.0157
1064.0,0.01596
1065.0,0.0153
1066.0,0.01541
1067.0,0.01553
1068.0,0.01483
1069.0,0.01477
1070.0,0.01526
1071.0,0.01623
1072.0,0.0155
1073.0,0.01529
1074.0,0.01689
1075.0,0.01388
1076.0,0.01686
1077.0,0.01555
1078.0,0.01425
1079.0,0.01724
1080.0,0.01489
1081.0,0.0134
1082.0,0.01575
1083.0,0.01628
1084.0,0.01313
1085.0,0.01531
1086.0,0.01156
1087.0,0.01329
1088.0,0.01608
1089.0,0.01288
1090.0,0.01199
1091.0,0.01505
1092.0,0.01529
1093.0,0.008628
1094.0,0.01325
1095.0,0.008564
1096.0,0.007334
1097.0,0.01513
1098.0,0.00714
1099.0,0.007156
1100.0,0.005323
1101.0,0.006316
1102.0,0.005139
1103.0,0.004194
1104.0,0.004785
1105.0,0.005782
1106.0,0.002097
1107.0,0.005528
1108.0,0.00265
1109.0,0.00258
1110.0,0.003884
1111.0,0.001058
1112.0,0.002779
1113.0,0.000681
1114.0,0.0007355
1115.0,0.0005448
1116.0,0.0003399
1117.0,0.0001182
1118.0,0.000372
1119.0,0.0001746
1120.0,0.0002184
1121.0,0.00029
1122.0,0.0001199
1123.0,0.0001953
1124.0,0.0001643
1125.0,0.0002146
1126.0,7.267e-05
1127.0,0.0002402
1128.0,0.0001413
1129.0,0.0001496
1130.0,9.754e-05
1131.0,0.0004662
1132.0,0.0003601
1133.0,0.0002212
1134.0,5.502e-05
1135.0,2.062e-05
1136.0,0.0001816
1137.0,0.0004448
1138.0,0.0003095
1139.0,0.0005549
1140.0,0.0004113
1141.0,0.0002935
1142.0,0.0003429
1143.0,0.0005218
1144.0,0.0001633
1145.0,0.0002046
1146.0,0.0002199
1147.0,7.56e-05
1148.0,0.0004346
1149.0,0.0003268
1150.0,0.0001761
1151.0,0.0002969
1152.0,0.0003814
1153.0,0.0004034
1154.0,0.0001951
1155.0,0.0005913
1156.0,0.0005139
1157.0,0.0008456
1158.0,0.0008333
1159.0,0.0009199
1160.0,0.000919
1161.0,0.001988
1162.0,0.002129
1163.0,0.005141
1164.0,0.003655
1165.0,0.002444
1166.0,0.003542
1167.0,0.004066
1168.0,0.004404
1169.0,0.005015
1170.0,0.006728
1171.0,0.005672
1172.0,0.00775
1173.0,0.006144
1174.0,0.002384
1175.0,0.007259
1176.0,0.01121
1177.0,0.008632
1178.0,0.004116
1179.0,0.01076
1180.0,0.007487
1181.0,0.006783
1182.0,0.002194
1183.0,0.007261
1184.0,0.00636
1185.0,0.004994
1186.0,0.008863
1187.0,0.006596
1188.0,0.001999
1189.0,0.006334
1190.0,0.009145
1191.0,0.006328
1192.0,0.009677
1193.0,0.008823
1194.0,0.009131
1195.0,0.006895
1196.0,0.00563
1197.0,0.009459
1198.0,0.008637
1199.0,0.003848
1200.0,0.008089
1201.0,0.006069
1202.0,0.008195
1203.0,0.006399
1204.0,0.005822
1205.0,0.00958
1206.0,0.0122
1207.0,0.007395
1208.0,0.008386
1209.0,0.008402
1210.0,0.01033
1211.0,0.008759
1212.0,0.005892
1213.0,0.01034
1214.0,0.006804
1215.0,0.006361
1216.0,0.0111
1217.0,0.009915
1218.0,0.01097
1219.0,0.01021
1220.0,0.01087
1221.0,0.01216
1222.0,0.01104
1223.0,0.01063
1224.0,0.009562
1225.0,0.01115
1226.0,0.01247
1227.0,0.008563
1228.0,0.01329
1229.0,0.01225
1230.0,0.01173
1231.0,0.01391
1232.0,0.01377
1233.0,0.01027
1234.0,0.01476
1235.0,0.01396
1236.0,0.01463
1237.0,0.01313
1238.0,0.01459
1239.0,0.0144
1240.0,0.01467
1241.0,0.01367
1242.0,0.01441
1243.0,0.01439
1244.0,0.01409
1245.0,0.0144
1246.0,0.01437
1247.0,0.01395
1248.0,0.01346
1249.0,0.01393
1250.0,0.01349
1251.0,0.01261
1252.0,0.01353
1253.0,0.01183
1254.0,0.01078
1255.0,0.01314
1256.0,0.01005
1257.0,0.0095
1258.0,0.01166
1259.0,0.007746
1260.0,0.00817
1261.0,0.004784
1262.0,0.003582
1263.0,0.003569
1264.0,0.00181
1265.0,0.003548
1266.0,0.00242
1267.0,0.003128
1268.0,0.002013
1269.0,0.0002492
1270.0,0.002817
1271.0,0.005187
1272.0,0.005309
1273.0,0.004973
1274.0,0.005508
1275.0,0.005937
1276.0,0.006674
1277.0,0.007735
1278.0,0.00917
1279.0,0.009319
1280.0,0.009291
1281.0,0.009742
1282.0,0.01062
1283.0,0.01112
1284.0,0.01141
1285.0,0.01178
1286.0,0.01248
1287.0,0.01128
1288.0,0.01178
1289.0,0.008767
1290.0,0.01159
1291.0,0.01231
1292.0,0.007719
1293.0,0.01138
1294.0,0.01093
1295.0,0.008866
1296.0,0.007238
1297.0,0.006019
1298.0,0.008469
1299.0,0.0111
1300.0,0.005146
1301.0,0.00516
1302.0,0.008562
1303.0,0.005774
1304.0,0.002372
1305.0,0.007764
1306.0,0.006741
1307.0,0.003055
1308.0,0.005361
1309.0,0.005999
1310.0,0.002854
1311.0,0.005068
1312.0,0.004593
1313.0,0.00323
1314.0,0.001759
1315.0,0.001692
1316.0,0.004351
1317.0,0.004039
1318.0,0.00517
1319.0,0.00171
1320.0,0.001462
1321.0,0.002646
1322.0,0.001873
1323.0,0.0005957
1324.0,0.001745
1325.0,0.002891
1326.0,0.001882
1327.0,0.001448
1328.0,0.0006742
1329.0,0.0002205
1330.0,0.0004222
1331.0,0.0001422
1332.0,0.0001366
1333.0,0.0002142
1334.0,0.0003253
1335.0,0.0003879
1336.0,0.0002219
1337.0,0.0002143
1338.0,0.0002119
1339.0,0.0002059
1340.0,0.0002211
1341.0,0.0001548
1342.0,0.0001707
1343.0,9.914e-05
1344.0,5.917e-05
1345.0,8.408e-05
1346.0,4.14e-05
1347.0,4.194e-05
1348.0,2.704e-06
1349.0,9.699e-06
1350.0,1.005e-05
1351.0,2.431e-06
1352.0,6.539e-07
1353.0,3.328e-08
1354.0,1.144e-07
1355.0,9.211e-10
1356.0,1.612e-08
1357.0,2.449e-08
1358.0,1.082e-09
1359.0,1.363e-10
1360.0,4.924e-10
1361.0,5.509e-13
1362.0,1.507e-15
1363.0,6.622e-10
1364.0,2.734e-10
1365.0,5.262e-16
1366.0,2.87e-09
1367.0,1.172e-09
1368.0,4.064e-18
1369.0,1.008e-10
1370.0,4.963e-11
1371.0,2.814e-12
1372.0,6.356e-10
1373.0,1.281e-08
1374.0,5.94e-08
1375.0,1.077e-07
1376.0,9.663e-08
1377.0,4.414e-08
1378.0,4.316e-07
1379.0,1.844e-08
1380.0,2.651e-08
1381.0,6.905e-10
1382.0,5.574e-10
1383.0,8.333e-12
1384.0,1.093e-10
1385.0,5.225e-10
1386.0,4.915e-10
1387.0,5.945e-08
1388.0,1.169e-09
1389.0,2.007e-07
1390.0,1.723e-07
1391.0,1.146e-07
1392.0,7.428e-09
1393.0,3.935e-08
1394.0,2.028e-08
1395.0,1.486e-10
1396.0,7.184e-13
1397.0,1.55e-08
1398.0,4.582e-07
1399.0,2.899e-07
1400.0,3.073e-13
1401.0,1.275e-12
1402.0,8.03e-07
1403.0,1.006e-06
1404.0,3.056e-07
1405.0,7.042e-11
1406.0,7.9e-07
1407.0,6.963e-08
1408.0,6.428e-07
1409.0,2.143e-07
1410.0,1.716e-07
1411.0,8.652e-07
1412.0,1.167e-06
1413.0,1.215e-05
1414.0,1.34e-07
1415.0,6.398e-08
1416.0,2.008e-05
1417.0,5.93e-06
1418.0,6.715e-06
1419.0,1.033e-06
1420.0,4.081e-06
1421.0,4.403e-06
1422.0,2.582e-05
1423.0,4.952e-06
1424.0,9.297e-06
1425.0,1.358e-05
1426.0,1.554e-05
1427.0,2.891e-05
1428.0,2.023e-06
1429.0,2.129e-05
1430.0,3.677e-05
1431.0,4.041e-05
1432.0,1.572e-06
1433.0,2.534e-05
1434.0,1.275e-05
1435.0,1.235e-05
1436.0,2.433e-05
1437.0,1.86e-05
1438.0,7.679e-06
1439.0,3.308e-05
1440.0,2.471e-05
1441.0,1.846e-05
1442.0,2.046e-05
1443.0,2.61e-05
1444.0,3.638e-05
1445.0,2.792e-05
1446.0,1.238e-05
1447.0,1.952e-05
1448.0,6.952e-05
1449.0,5.968e-05
1450.0,1.439e-05
1451.0,5.664e-06
1452.0,3.498e-05
1453.0,4.614e-05
1454.0,8.537e-05
1455.0,3.749e-05
1456.0,5e-05
1457.0,6.91e-05
1458.0,9.506e-05
1459.0,0.0001131
1460.0,5.184e-05
1461.0,5.043e-05
1462.0,7.913e-05
1463.0,2.378e-05
1464.0,0.0001002
1465.0,5.809e-05
1466.0,3.535e-05
1467.0,1.807e-05
1468.0,4.189e-05
1469.0,5.224e-05
1470.0,2.491e-05
1471.0,8.845e-06
1472.0,2.367e-05
1473.0,3.683e-05
1474.0,5.818e-05
1475.0,0.0001346
1476.0,3.711e-05
1477.0,3.665e-05
1478.0,3.517e-05
1479.0,7.268e-05
1480.0,3.141e-05
1481.0,6.456e-05
1482.0,3.133e-05
1483.0,9.816e-05
1484.0,0.0001202
1485.0,8.854e-05
1486.0,7.129e-05
1487.0,2.997e-05
1488.0,6.519e-05
1489.0,0.0002324
1490.0,0.0004119
1491.0,0.0004906
1492.0,0.0001548
1493.0,0.0003997
1494.0,0.0009722
1495.0,0.000514
1496.0,0.0003583
1497.0,0.001978
1498.0,0.001034
1499.0,0.001291
1500.0,0.003491
1501.0,0.003355
1502.0,0.00269
1503.0,0.001179
1504.0,0.0003005
1505.0,0.00119
1506.0,0.004214
1507.0,0.003858
1508.0,0.003607
1509.0,0.001372
1510.0,0.005067
1511.0,0.00382
1512.0,0.005206
1513.0,0.00286
1514.0,0.002319
1515.0,0.005812
1516.0,0.005052
1517.0,0.003532
1518.0,0.004437
1519.0,0.003255
1520.0,0.004626
1521.0,0.008113
1522.0,0.005753
1523.0,0.008484
1524.0,0.006792
1525.0,0.0049
1526.0,0.004761
1527.0,0.005843
1528.0,0.007856
1529.0,0.006887
1530.0,0.005399
1531.0,0.006514
1532.0,0.008628
1533.0,0.009083
1534.0,0.008884
1535.0,0.00815
1536.0,0.008658
1537.0,0.008152
1538.0,0.008989
1539.0,0.008461
1540.0,0.008998
1541.0,0.008817
1542.0,0.008329
1543.0,0.00898
1544.0,0.008582
1545.0,0.009256
1546.0,0.008411
1547.0,0.008816
1548.0,0.008853
1549.0,0.009266
1550.0,0.00902
1551.0,0.008863
1552.0,0.008573
1553.0,0.009008
1554.0,0.008718
1555.0,0.008983
1556.0,0.00885
1557.0,0.009059
1558.0,0.009017
1559.0,0.008917
1560.0,0.008898
1561.0,0.008999
1562.0,0.008646
1563.0,0.008608
1564.0,0.008561
1565.0,0.008971
1566.0,0.008623
1567.0,0.008738
1568.0,0.008531
1569.0,0.008888
1570.0,0.008875
1571.0,0.008879
1572.0,0.008833
1573.0,0.008611
1574.0,0.008134
1575.0,0.007927
1576.0,0.007356
1577.0,0.007071
1578.0,0.007201
1579.0,0.00683
1580.0,0.007075
1581.0,0.007001
1582.0,0.006991
1583.0,0.006869
1584.0,0.007797
1585.0,0.008069
1586.0,0.007845
1587.0,0.007685
1588.0,0.00815
1589.0,0.00797
1590.0,0.007884
1591.0,0.008226
1592.0,0.008092
1593.0,0.008581
1594.0,0.00835
1595.0,0.008421
1596.0,0.00803
1597.0,0.00783
1598.0,0.00852
1599.0,0.008468
1600.0,0.008581
1601.0,0.008237
1602.0,0.008039
1603.0,0.008549
1604.0,0.008442
1605.0,0.008505
1606.0,0.008379
1607.0,0.008476
1608.0,0.008034
1609.0,0.008141
1610.0,0.007943
1611.0,0.008039
1612.0,0.008313
1613.0,0.008027
1614.0,0.008203
1615.0,0.008077
1616.0,0.007926
1617.0,0.007775
1618.0,0.008239
1619.0,0.007668
1620.0,0.007964
1621.0,0.00792
1622.0,0.008024
1623.0,0.008195
1624.0,0.007862
1625.0,0.007796
1626.0,0.007773
1627.0,0.007963
1628.0,0.007717
1629.0,0.007863
1630.0,0.007693
1631.0,0.007174
1632.0,0.00746
1633.0,0.006234
1634.0,0.007537
1635.0,0.00617
1636.0,0.006923
1637.0,0.00723
1638.0,0.004895
1639.0,0.007013
1640.0,0.004535
1641.0,0.006652
1642.0,0.007322
1643.0,0.003916
1644.0,0.007559
1645.0,0.005311
1646.0,0.003808
1647.0,0.007547
1648.0,0.003878
1649.0,0.006573
1650.0,0.006877
1651.0,0.003246
1652.0,0.00641
1653.0,0.007015
1654.0,0.003999
1655.0,0.006811
1656.0,0.005534
1657.0,0.006097
1658.0,0.007224
1659.0,0.006835
1660.0,0.006887
1661.0,0.006845
1662.0,0.00562
1663.0,0.007145
1664.0,0.006834
1665.0,0.003955
1666.0,0.0005672
1667.0,0.003967
1668.0,0.006302
1669.0,0.00645
1670.0,0.007028
1671.0,0.006287
1672.0,0.00673
1673.0,0.007018
1674.0,0.005745
1675.0,0.006008
1676.0,0.006632
1677.0,0.005938
1678.0,0.004879
1679.0,0.006835
1680.0,0.006246
1681.0,0.00485
1682.0,0.006668
1683.0,0.006865
1684.0,0.003235
1685.0,0.006844
1686.0,0.00679
1687.0,0.004921
1688.0,0.006403
1689.0,0.006504
1690.0,0.005995
1691.0,0.003508
1692.0,0.005607
1693.0,0.006836
1694.0,0.005062
1695.0,0.006355
1696.0,0.006733
1697.0,0.002512
1698.0,0.006083
1699.0,0.006203
1700.0,0.005212
1702.0,0.006002
1705.0,0.004872
1710.0,0.004394
1715.0,0.004658
1720.0,0.004889
1725.0,0.003257
1730.0,0.003793
1735.0,0.003268
1740.0,0.003221
1745.0,0.003181
1750.0,0.00256
1755.0,0.00241
1760.0,0.002219
1765.0,0.001309
1770.0,0.00122
1775.0,0.0006524
1780.0,0.0003428
1785.0,0.0001129
1790.0,0.0001167
1795.0,1.123e-05
1800.0,7.76e-06
1805.0,3.057e-06
1810.0,1.986e-06
1815.0,5.742e-07
1820.0,1.436e-07
1825.0,1.875e-07
1830.0,4.569e-10
1835.0,6.919e-10
1840.0,4.038e-12
1845.0,4.317e-10
1850.0,1.949e-10
1855.0,1.863e-11
1860.0,1.067e-09
1865.0,1.488e-09
1870.0,8.142e-15
1875.0,1.471e-14
1880.0,7.835e-09
1885.0,4.175e-09
1890.0,2.29e-08
1895.0,1.329e-08
1900.0,5.68e-11
1905.0,3.869e-11
1910.0,1.874e-09
1915.0,1.826e-09
1920.0,4.788e-08
1925.0,1.125e-07
1930.0,6.497e-08
1935.0,4.953e-07
1940.0,4.919e-07
1945.0,2.026e-06
1950.0,4.023e-06
1955.0,3.514e-06
1960.0,6.641e-06
1965.0,8.658e-05
1970.0,0.0002695
1975.0,0.0003687
1980.0,0.0002886
1985.0,0.000479
1990.0,0.0007925
1995.0,0.0008706
2000.0,0.001351
2005.0,0.0006056
2010.0,0.002779
2015.0,0.0008913
2020.0,0.001436
2025.0,0.002261
2030.0,0.001594
2035.0,0.002768
2040.0,0.002193
2045.0,0.002331
2050.0,0.003
2055.0,0.0023
2060.0,0.002066
2065.0,0.002319
2070.0,0.002094
2075.0,0.00285
2080.0,0.002795
2085.0,0.002748
2090.0,0.002972
2095.0,0.002696
2100.0,0.002015
2105.0,0.002701
2110.0,0.002226
2115.0,0.002738
2120.0,0.002019
2125.0,0.002391
2130.0,0.002732
2135.0,0.002878
2140.0,0.002975
2145.0,0.002925
2150.0,0.001985
2155.0,0.001991
2160.0,0.002087
2165.0,0.001779
2170.0,0.002202
2175.0,0.001755
2180.0,0.002111
2185.0,0.001395
2190.0,0.001996
2195.0,0.001859
2200.0,0.0006117
2205.0,0.001304
2210.0,0.002322
2215.0,0.001767
2220.0,0.001891
2225.0,0.001658
2230.0,0.001688
2235.0,0.00147
2240.0,0.001426
2245.0,0.001001
2250.0,0.001395
2255.0,0.0007355
2260.0,0.0006669
2265.0,0.0009682
2270.0,0.0005177
2275.0,0.0004701
2280.0,0.0009254
2285.0,0.0004764
2290.0,0.0005054
2295.0,0.0004649
2300.0,0.0002642
2305.0,0.0003062
2310.0,0.0009845
2315.0,0.0003242
2320.0,0.0001248
2325.0,0.0005963
2330.0,0.0003893
2335.0,0.0005079
2340.0,9.533e-05
2345.0,0.0001452
2350.0,6.748e-05
2355.0,0.0001058
2360.0,0.0001684
2365.0,0.0003226
2370.0,5.748e-06
2375.0,8.905e-05
2380.0,0.0001458
2385.0,2.683e-05
2390.0,4.486e-05
2395.0,6.321e-05
2400.0,8.63e-05
2405.0,6.794e-05
2410.0,6.659e-05
2415.0,8.709e-06
2420.0,8.199e-06
2425.0,1.488e-05
2430.0,5.047e-05
2435.0,1.414e-06
2440.0,5.936e-05
2445.0,2.788e-06
2450.0,1.107e-06
2455.0,1.208e-05
2460.0,6.792e-06
2465.0,2.213e-06
2470.0,1.126e-06
2475.0,1.119e-06
2480.0,5.224e-07
2485.0,3.308e-07
2490.0,1.902e-07
2495.0,1.646e-07
2500.0,4.083e-07
2505.0,8.304e-08
2510.0,1.224e-07
2515.0,2.586e-08
2520.0,1.453e-08
2525.0,1.657e-09
2530.0,1.154e-11
2535.0,2.552e-12
2540.0,6.054e-12
2545.0,4.695e-16
2550.0,1.903e-18
2555.0,9.136e-15
2560.0,2.742e-16
2565.0,6.139000000000001e-20
2570.0,1.828e-24
2575.0,1.156e-34
2580.0,1.206e-28
2585.0,2.52e-42
2590.0,1.572e-38
2595.0,3.059e-40
2600.0,2.519e-35
2605.0,2.7830000000000002e-42
2610.0,9.582e-42
2615.0,1.4009999999999999e-45
2620.0,8.443000000000001e-36
2625.0,1.546e-35
2630.0,0.0
2635.0,8.051999999999999e-22
2640.0,1.7429999999999998e-22
2645.0,7.5980000000000005e-25
2650.0,7.568000000000001e-26
2655.0,9.101000000000001e-35
2660.0,7.663e-32
2665.0,7.006e-45
2670.0,0.0
2675.0,3.643e-44
2680.0,1.554e-30
2685.0,1.4840000000000002e-31
2690.0,5.553000000000001e-31
2695.0,2.179e-33
2700.0,6.346e-29
2705.0,1.8e-26
2710.0,1.433e-31
2715.0,1.81e-29
2720.0,0.0
2725.0,4.052e-27
2730.0,1.181e-24
2735.0,1.347e-26
2740.0,2.433e-32
2745.0,3.138e-27
2750.0,1.759e-26
2755.0,2.8300000000000003e-28
2760.0,4.2389999999999996e-23
2765.0,1.9889999999999999e-29
2770.0,9.777e-27
2775.0,4.574e-18
2780.0,5.62e-21
2785.0,2.1100000000000002e-20
2790.0,1.161e-17
2795.0,1.058e-18
2800.0,1.241e-13
2805.0,6.317e-17
2810.0,2.533e-13
2815.0,7.556e-14
2820.0,9.232e-16
2825.0,8.104e-12
2830.0,1.761e-10
2835.0,2.426e-15
2840.0,4.229e-11
2845.0,1.796e-09
2850.0,3.109e-11
2855.0,1.242e-11
2860.0,6.456e-10
2865.0,4.761e-09
2870.0,3.054e-10
2875.0,1.159e-08
2880.0,7.302e-09
2885.0,1.203e-08
2890.0,5.114e-09
2895.0,8.716e-08
2900.0,2.43e-08
2905.0,2.812e-09
2910.0,8.891e-08
2915.0,3.773e-08
2920.0,9.363e-08
2925.0,3.339e-08
2930.0,2.026e-07
2935.0,2.23e-07
2940.0,4.991e-08
2945.0,4.283e-08
2950.0,1.729e-07
2955.0,7.698e-08
2960.0,1.557e-07
2965.0,2.74e-07
2970.0,1.013e-08
2975.0,2.577e-08
2980.0,4.014e-08
2985.0,2.77e-07
2990.0,1.082e-06
2995.0,1.389e-07
3000.0,3.031e-07
3005.0,8.833e-08
3010.0,2.989e-07
3015.0,1.9e-07
3020.0,1.575e-08
3025.0,2.532e-07
3030.0,2.076e-07
3035.0,7.194e-08
3040.0,5.663e-08
3045.0,1.213e-07
3050.0,2.737e-08
3055.0,6.698e-09
3060.0,1.923e-07
3065.0,7.989e-08
3070.0,4.472e-08
3075.0,1.818e-07
3080.0,1.018e-07
3085.0,4.495e-08
3090.0,6.113e-08
3095.0,1.503e-08
3100.0,1.23e-07
3105.0,2.297e-08
3110.0,1.916e-08
3115.0,5.749e-08
3120.0,3.473e-07
3125.0,3.519e-07
3130.0,1.989e-07
3135.0,6.391e-07
3140.0,9.088e-08
3145.0,8.825e-08
3150.0,2.304e-07
3155.0,2.545e-07
3160.0,7.065e-07
3165.0,4.078e-06
3170.0,5.538e-06
3175.0,4.24e-07
3180.0,1.794e-06
3185.0,2.081e-07
3190.0,1.342e-07
3195.0,5.931e-08
3200.0,8.37e-09
3205.0,5.468e-09
3210.0,2.278e-09
3215.0,9.261e-09
3220.0,3.251e-08
3225.0,3.739e-09
3230.0,6.21e-09
3235.0,1.793e-07
3240.0,7.912e-08
3245.0,1.513e-08
3250.0,5.541e-08
3255.0,2.817e-07
3260.0,2.373e-08
3265.0,5.131e-08
3270.0,2.416e-08
3275.0,1.504e-07
3280.0,6.21e-08
3285.0,9.221e-07
3290.0,2.403e-07
3295.0,2.542e-08
3300.0,3.69e-08
3305.0,8.501e-08
3310.0,8.05e-08
3315.0,1.166e-10
3320.0,7.347e-10
3325.0,6.756e-08
3330.0,2.171e-07
3335.0,4.033e-07
3340.0,6.052e-07
3345.0,7.166e-08
3350.0,8.344e-07
3355.0,7.625e-08
3360.0,1.573e-07
3365.0,1.262e-06
3370.0,7.566e-08
3375.0,5.127e-06
3380.0,1.024e-07
3385.0,2.815e-06
3390.0,1.278e-06
3395.0,4.558e-06
3400.0,4.359e-05
3405.0,8.462e-08
3410.0,5.01e-06
3415.0,2.285e-07
3420.0,8.538e-05
3425.0,2.735e-06
3430.0,5.343e-07
3435.0,6.285e-05
3440.0,3.882e-07
3445.0,3.735e-05
3450.0,1.336e-05
3455.0,2.031e-06
3460.0,0.0001032
3465.0,2.896e-06
3470.0,9.355e-05
3475.0,1.774e-05
3480.0,2.057e-05
3485.0,7.915e-05
3490.0,1.26e-05
3495.0,8.043e-05
3500.0,7.002e-05
3505.0,6.913e-05
3510.0,7.441e-05
3515.0,7.298e-05
3520.0,0.0001056
3525.0,0.0001064
3530.0,5.872e-05
3535.0,1.15e-05
3540.0,8.783e-06
3545.0,9.435e-06
3550.0,5.406e-05
3555.0,1.72e-05
3560.0,7.524e-05
3565.0,4.607e-05
3570.0,1.493e-05
3575.0,8.42e-06
3580.0,4.496e-05
3585.0,1.514e-05
3590.0,3.311e-05
3595.0,7.008e-05
3600.0,9.224e-05
3605.0,4.915e-05
3610.0,3.739e-05
3615.0,7.327e-05
3620.0,0.0001959
3625.0,6.05e-05
3630.0,8.217e-05
3635.0,9.534e-05
3640.0,0.0002105
3645.0,7.349e-05
3650.0,8.389e-05
3655.0,0.0001572
3660.0,0.0001833
3665.0,6.053e-05
3670.0,3.111e-05
3675.0,1.8e-06
3680.0,2.291e-05
3685.0,5.199e-05
3690.0,4.306e-05
3695.0,0.0001175
3700.0,0.0002203
3705.0,0.0001967
3710.0,7.023e-05
3715.0,9.809e-05
3720.0,0.0001719
3725.0,0.0001924
3730.0,9.564e-05
3735.0,5.479e-05
3740.0,8.935e-05
3745.0,0.0001791
3750.0,0.0001164
3755.0,9.467e-05
3760.0,6.617e-05
3765.0,6.757e-05
3770.0,0.0001054
3775.0,0.0001051
3780.0,0.0001473
3785.0,9.222e-05
3790.0,4.744e-05
3795.0,0.000115
3800.0,0.0001881
3805.0,0.0001437
3810.0,7.15e-05
3815.0,6.325e-05
3820.0,0.0001835
3825.0,0.0001828
3830.0,0.0001901
3835.0,4.9e-05
3840.0,0.0001172
3845.0,8.685e-05
3850.0,8.976e-05
3855.0,7.072e-05
3860.0,2.988e-05
3865.0,2.841e-05
3870.0,9.325e-06
3875.0,3.425e-06
3880.0,2.086e-06
3885.0,3.181e-06
3890.0,3.892e-06
3895.0,1.209e-05
3900.0,3.525e-05
3905.0,2.962e-05
3910.0,7.378e-06
3915.0,5.795e-06
3920.0,6.139e-06
3925.0,5.536e-06
3930.0,8.113e-06
3935.0,1.442e-05
3940.0,1.736e-05
3945.0,2.321e-05
3950.0,3.111e-05
3955.0,3.7e-05
3960.0,4.263e-05
3965.0,4.786e-05
3970.0,4.343e-05
3975.0,3.28e-05
3980.0,2.912e-05
3985.0,3.29e-05
3990.0,2.963e-05
3995.0,2.385e-05
4000.0,1.911e-05
