interpolation:linear
wavelength,value
280.0,2.442e-23
280.5,8.559e-22
281.0,4.68e-21
281.5,1.582e-19
282.0,1.305e-18
282.5,5.067e-18
283.0,2.27e-17
283.5,4.234e-17
284.0,7.994e-16
284.5,2.233e-15
285.0,6.405e-16
285.5,3.658e-15
286.0,1.524e-14
286.5,7.304e-14
287.0,2.17e-13
287.5,8.725e-13
288.0,3.432e-11
288.5,4.2e-11
289.0,8.102e-11
289.5,2.044e-10
290.0,5.169e-10
290.5,9.927e-10
291.0,2.021e-09
291.5,5.538e-09
292.0,1.096e-08
292.5,1.431e-08
293.0,2.844e-08
293.5,6.382e-08
294.0,9.427e-08
294.5,1.879e-08
295.0,3.128e-08
295.5,5.149e-08
296.0,8.622e-08
296.5,1.056e-07
297.0,1.287e-07
297.5,2.967e-07
298.0,4.126e-07
298.5,3.776e-07
299.0,7.602e-07
299.5,1.079e-06
300.0,1.089e-06
300.5,1.446e-06
301.0,2.278e-06
301.5,3.209e-06
302.0,2.579e-06
302.5,2.382e-06
303.0,4.45e-06
303.5,5.72e-06
304.0,5.393e-06
304.5,8.223e-06
305.0,1.323e-05
305.5,1.6e-05
306.0,1.587e-05
306.5,2.066e-05
307.0,3.43e-05
307.5,5.182e-05
308.0,5.6e-05
308.5,7.103e-05
309.0,6.897e-05
309.5,7.088e-05
310.0,6.976e-05
310.5,0.0001125
311.0,0.000141
311.5,0.0001364
312.0,0.0001405
312.5,0.0001772
313.0,0.0001971
313.5,0.000187
314.0,0.0002592
314.5,0.0002765
315.0,0.000376
315.5,0.000287
316.0,0.0002928
316.5,0.0004836
317.0,0.0005991
317.5,0.0005989
318.0,0.0005151
318.5,0.0007771
319.0,0.001021
319.5,0.0007075
320.0,0.0008348
320.5,0.001282
321.0,0.001387
321.5,0.001357
322.0,0.001174
322.5,0.001032
323.0,0.001177
323.5,0.002964
324.0,0.003604
324.5,0.003296
325.0,0.001518
325.5,0.00219
326.0,0.005123
326.5,0.00584
327.0,0.00555
327.5,0.005043
328.0,0.003758
328.5,0.004894
329.0,0.006996
329.5,0.00846
330.0,0.008109
330.5,0.00563
331.0,0.005492
331.5,0.006134
332.0,0.007832
332.5,0.008361
333.0,0.00798
333.5,0.006363
334.0,0.006381
334.5,0.008505
335.0,0.008666
335.5,0.01084
336.0,0.007503
336.5,0.007883
337.0,0.006094
337.5,0.007414
338.0,0.008131
338.5,0.01021
339.0,0.01019
339.5,0.009749
340.0,0.01057
340.5,0.009634
341.0,0.01012
341.5,0.009433
342.0,0.01132
342.5,0.01064
343.0,0.01159
343.5,0.01085
344.0,0.00744
344.5,0.008008
345.0,0.01079
345.5,0.0111
346.0,0.009482
346.5,0.01077
347.0,0.01148
347.5,0.009256
348.0,0.01066
348.5,0.01072
349.0,0.009968
349.5,0.009861
350.0,0.01221
350.5,0.01288
351.0,0.01146
351.5,0.011
352.0,0.01191
352.5,0.009354
353.0,0.01183
353.5,0.01268
354.0,0.0132
354.5,0.01339
355.0,0.01332
355.5,0.01205
356.0,0.01263
356.5,0.01079
357.0,0.008916
357.5,0.01093
358.0,0.008668
358.5,0.007413
359.0,0.01036
359.5,0.01316
360.0,0.01397
360.5,0.01119
361.0,0.01022
361.5,0.01178
362.0,0.01019
362.5,0.01411
363.0,0.01268
363.5,0.01168
364.0,0.0143
364.5,0.01222
365.0,0.01245
365.5,0.01563
366.0,0.01657
366.5,0.01558
367.0,0.01518
367.5,0.01576
368.0,0.01379
368.5,0.01391
369.0,0.01503
369.5,0.01603
370.0,0.0171
370.5,0.01328
371.0,0.01419
371.5,0.01776
372.0,0.01179
372.5,0.01414
373.0,0.01439
373.5,0.009364
374.0,0.01361
374.5,0.01128
375.0,0.01096
375.5,0.01638
376.0,0.01358
376.5,0.01408
377.0,0.01491
377.5,0.01745
378.0,0.01892
378.5,0.01789
379.0,0.01477
379.5,0.01349
380.0,0.01403
380.5,0.017
381.0,0.01704
381.5,0.01351
382.0,0.012
382.5,0.01023
383.0,0.009478
383.5,0.009132
384.0,0.01008
384.5,0.01483
385.0,0.01471
385.5,0.0137
386.0,0.01174
386.5,0.01542
387.0,0.01282
387.5,0.0144
388.0,0.0133
388.5,0.01315
389.0,0.0142
389.5,0.0172
390.0,0.01727
390.5,0.0159
391.0,0.01872
391.5,0.0191
392.0,0.01609
392.5,0.01441
393.0,0.00802
393.5,0.005831
394.0,0.01187
394.5,0.01509
395.0,0.01842
395.5,0.01872
396.0,0.01624
396.5,0.009494
397.0,0.007128
397.5,0.0145
398.0,0.02031
398.5,0.021
399.0,0.02275
399.5,0.02268
400.0,0.02356
401.0,0.02327
402.0,0.02455
403.0,0.02333
404.0,0.02298
405.0,0.02299
406.0,0.02262
407.0,0.02225
408.0,0.02311
409.0,0.02474
410.0,0.02162
411.0,0.02342
412.0,0.02517
413.0,0.02457
414.0,0.02487
415.0,0.02493
416.0,0.02536
417.0,0.02473
418.0,0.02428
419.0,0.02461
420.0,0.02451
421.0,0.02563
422.0,0.02434
423.0,0.02375
424.0,0.0251
425.0,0.02504
426.0,0.02439
427.0,0.02395
428.0,0.02335
429.0,0.02214
430.0,0.01937
431.0,0.01919
432.0,0.02475
433.0,0.02487
434.0,0.02309
435.0,0.02413
436.0,0.0272
437.0,0.02681
438.0,0.02438
439.0,0.02516
440.0,0.0259
441.0,0.02678
442.0,0.02868
443.0,0.02792
444.0,0.02855
445.0,0.02799
446.0,0.02676
447.0,0.02895
448.0,0.02937
449.0,0.02942
450.0,0.03019
451.0,0.03128
452.0,0.03015
453.0,0.02837
454.0,0.02962
455.0,0.02974
456.0,0.03039
457.0,0.03079
458.0,0.02962
459.0,0.02932
460.0,0.02928
461.0,0.02987
462.0,0.0301
463.0,0.02995
464.0,0.02955
465.0,0.02927
466.0,0.02958
467.0,0.02901
468.0,0.02927
469.0,0.02933
470.0,0.02834
471.0,0.0283
472.0,0.02983
473.0,0.02944
474.0,0.02945
475.0,0.0296
476.0,0.02856
477.0,0.02848
478.0,0.02908
479.0,0.0287
480.0,0.02857
481.0,0.02895
482.0,0.02903
483.0,0.02869
484.0,0.02818
485.0,0.02695
486.0,0.02365
487.0,0.02483
488.0,0.02722
489.0,0.02724
490.0,0.02857
491.0,0.028
492.0,0.0264
493.0,0.02725
494.0,0.02751
495.0,0.02771
496.0,0.02781
497.0,0.02811
498.0,0.02662
499.0,0.02674
500.0,0.02576
501.0,0.02507
502.0,0.02448
503.0,0.02526
504.0,0.02445
505.0,0.02525
506.0,0.02605
507.0,0.02482
508.0,0.02411
509.0,0.02487
510.0,0.0248
511.0,0.02548
512.0,0.02574
513.0,0.02431
514.0,0.02407
515.0,0.02375
516.0,0.02362
517.0,0.02093
518.0,0.02196
519.0,0.02298
520.0,0.02373
521.0,0.02386
522.0,0.02375
523.0,0.02324
524.0,0.02389
525.0,0.02397
526.0,0.02275
527.0,0.02125
528.0,0.0223
529.0,0.02335
530.0,0.02288
531.0,0.02308
532.0,0.0222
533.0,0.0215
534.0,0.02211
535.0,0.02261
536.0,0.02283
537.0,0.02194
538.0,0.0223
539.0,0.02206
540.0,0.02107
541.0,0.02107
542.0,0.02164
543.0,0.02135
544.0,0.0216
545.0,0.02147
546.0,0.02148
547.0,0.02144
548.0,0.02117
549.0,0.0212
550.0,0.0214
551.0,0.0211
552.0,0.0212
553.0,0.02077
554.0,0.0212
555.0,0.02116
556.0,0.0208
557.0,0.02005
558.0,0.01977
559.0,0.01926
560.0,0.01936
561.0,0.01947
562.0,0.01918
563.0,0.01957
564.0,0.01892
565.0,0.01865
566.0,0.01828
567.0,0.01851
568.0,0.01817
569.0,0.01763
570.0,0.01752
571.0,0.01733
572.0,0.01763
573.0,0.01775
574.0,0.01762
575.0,0.01724
576.0,0.01707
577.0,0.01728
578.0,0.01708
579.0,0.01725
580.0,0.01773
581.0,0.01796
582.0,0.01841
583.0,0.01855
584.0,0.01877
585.0,0.01835
586.0,0.01799
587.0,0.01833
588.0,0.01782
589.0,0.01529
590.0,0.01591
591.0,0.01701
592.0,0.0166
593.0,0.01702
594.0,0.01669
595.0,0.0162
596.0,0.01709
597.0,0.01662
598.0,0.01654
599.0,0.01664
600.0,0.01659
601.0,0.01645
602.0,0.01634
603.0,0.01666
604.0,0.01699
605.0,0.01696
606.0,0.01695
607.0,0.0172
608.0,0.0171
609.0,0.01722
610.0,0.0172
611.0,0.01739
612.0,0.01743
613.0,0.01731
614.0,0.01716
615.0,0.01761
616.0,0.0171
617.0,0.01712
618.0,0.01783
619.0,0.0177
620.0,0.01783
621.0,0.01788
622.0,0.01768
623.0,0.01742
624.0,0.0171
625.0,0.01705
626.0,0.01727
627.0,0.01735
628.0,0.01495
629.0,0.01636
630.0,0.01597
631.0,0.01678
632.0,0.0168
633.0,0.0175
634.0,0.01756
635.0,0.018
636.0,0.01788
637.0,0.01833
638.0,0.01867
639.0,0.01858
640.0,0.01856
641.0,0.01865
642.0,0.01871
643.0,0.01906
644.0,0.0191
645.0,0.01903
646.0,0.01857
647.0,0.01775
648.0,0.01772
649.0,0.01735
650.0,0.01809
651.0,0.01902
652.0,0.01761
653.0,0.01897
654.0,0.01903
655.0,0.01763
656.0,0.01585
657.0,0.01658
658.0,0.01868
659.0,0.01922
660.0,0.01929
661.0,0.01961
662.0,0.01984
663.0,0.01954
664.0,0.01979
665.0,0.01984
666.0,0.01995
667.0,0.02001
668.0,0.02016
669.0,0.02051
670.0,0.02049
671.0,0.02056
672.0,0.02045
673.0,0.02083
674.0,0.0208
675.0,0.02068
676.0,0.02087
677.0,0.02072
678.0,0.02083
679.0,0.02054
680.0,0.02073
681.0,0.02059
682.0,0.02056
683.0,0.0205
684.0,0.02035
685.0,0.02063
686.0,0.02036
687.0,0.009769
688.0,0.01148
689.0,0.01153
690.0,0.01222
691.0,0.01329
692.0,0.01457
693.0,0.01466
694.0,0.01499
695.0,0.01668
696.0,0.0168
697.0,0.02009
698.0,0.01898
699.0,0.0173
700.0,0.0171
701.0,0.01638
702.0,0.01669
703.0,0.01728
704.0,0.01824
705.0,0.01844
706.0,0.01867
707.0,0.01864
708.0,0.01944
709.0,0.01982
710.0,0.01902
711.0,0.01931
712.0,0.01977
713.0,0.01888
714.0,0.01925
715.0,0.01813
716.0,0.01758
717.0,0.01233
718.0,0.01178
719.0,0.01126
720.0,0.01108
721.0,0.01338
722.0,0.01556
723.0,0.01458
724.0,0.01294
725.0,0.01223
726.0,0.01192
727.0,0.014
728.0,0.01136
729.0,0.01262
730.0,0.01266
731.0,0.01217
732.0,0.01383
733.0,0.01558
734.0,0.0166
735.0,0.0161
736.0,0.0154
737.0,0.01585
738.0,0.01766
739.0,0.01733
740.0,0.01837
741.0,0.0184
742.0,0.01888
743.0,0.01928
744.0,0.01926
745.0,0.01953
746.0,0.01961
747.0,0.01973
748.0,0.0197
749.0,0.0195
750.0,0.0195
751.0,0.0193
752.0,0.01941
753.0,0.01955
754.0,0.01956
755.0,0.0194
756.0,0.01945
757.0,0.01944
758.0,0.01911
759.0,0.01697
760.0,0.001906
761.0,0.001017
762.0,0.005591
763.0,0.002847
764.0,0.004214
765.0,0.005541
766.0,0.006742
767.0,0.008669
768.0,0.01187
769.0,0.01337
770.0,0.01611
771.0,0.01766
772.0,0.0182
773.0,0.01845
774.0,0.01846
775.0,0.0184
776.0,0.01865
777.0,0.01841
778.0,0.01825
779.0,0.01827
780.0,0.01818
781.0,0.01821
782.0,0.01834
783.0,0.01805
784.0,0.01818
785.0,0.01801
786.0,0.01799
787.0,0.01675
788.0,0.01662
789.0,0.01597
790.0,0.01445
791.0,0.01543
792.0,0.01556
793.0,0.01519
794.0,0.01702
795.0,0.01669
796.0,0.01457
797.0,0.01562
798.0,0.01706
799.0,0.01627
800.0,0.01499
801.0,0.01445
802.0,0.01508
803.0,0.01423
804.0,0.01483
805.0,0.01528
806.0,0.01675
807.0,0.01584
808.0,0.01601
809.0,0.01477
810.0,0.01455
811.0,0.01269
812.0,0.01205
813.0,0.01143
814.0,0.008886
815.0,0.008671
816.0,0.009553
817.0,0.009598
818.0,0.009527
819.0,0.009829
820.0,0.01104
821.0,0.01218
822.0,0.01105
823.0,0.005656
824.0,0.01046
825.0,0.0137
826.0,0.01064
827.0,0.01239
828.0,0.008749
829.0,0.01188
830.0,0.01149
831.0,0.01129
832.0,0.01096
833.0,0.01109
834.0,0.0104
835.0,0.01326
836.0,0.01176
837.0,0.01311
838.0,0.01193
839.0,0.01395
840.0,0.01465
841.0,0.01394
842.0,0.01429
843.0,0.01508
844.0,0.01433
845.0,0.01537
846.0,0.01564
847.0,0.01553
848.0,0.01512
849.0,0.01459
850.0,0.01396
851.0,0.01419
852.0,0.0145
853.0,0.01424
854.0,0.01222
855.0,0.0135
856.0,0.01477
857.0,0.01527
858.0,0.0151
859.0,0.01538
860.0,0.0155
861.0,0.0154
862.0,0.01567
863.0,0.01601
864.0,0.01526
865.0,0.01515
866.0,0.01362
867.0,0.01422
868.0,0.01548
869.0,0.01518
870.0,0.01562
871.0,0.01537
872.0,0.01535
873.0,0.01532
874.0,0.01514
875.0,0.01477
876.0,0.01492
877.0,0.01504
878.0,0.0152
879.0,0.01495
880.0,0.01456
881.0,0.01423
882.0,0.01431
883.0,0.01453
884.0,0.01438
885.0,0.01427
886.0,0.01284
887.0,0.01371
888.0,0.01351
889.0,0.01442
890.0,0.01328
891.0,0.01414
892.0,0.01197
893.0,0.01124
894.0,0.009219
895.0,0.007522
896.0,0.007479
897.0,0.00672
898.0,0.007128
899.0,0.004424
900.0,0.006402
901.0,0.004642
902.0,0.004788
903.0,0.005778
904.0,0.008882
905.0,0.007923
906.0,0.007535
907.0,0.005408
908.0,0.006093
909.0,0.005775
910.0,0.004124
911.0,0.004992
912.0,0.007596
913.0,0.004277
914.0,0.005962
915.0,0.004153
916.0,0.004739
917.0,0.005054
918.0,0.004334
919.0,0.005538
920.0,0.006955
921.0,0.006608
922.0,0.005241
923.0,0.006593
924.0,0.004945
925.0,0.004805
926.0,0.004731
927.0,0.005506
928.0,0.00304
929.0,0.002626
930.0,0.001992
931.0,0.001875
932.0,0.001339
933.0,0.001081
934.0,0.0005865
935.0,0.001099
936.0,0.0006808
937.0,0.0006868
938.0,0.0008419
939.0,0.001761
940.0,0.00213
941.0,0.001579
942.0,0.001824
943.0,0.001189
944.0,0.001251
945.0,0.001602
946.0,0.0008067
947.0,0.001597
948.0,0.001171
949.0,0.002136
950.0,0.0005838
951.0,0.002099
952.0,0.001144
953.0,0.001449
954.0,0.00177
955.0,0.00162
956.0,0.001433
957.0,0.001134
958.0,0.0021
959.0,0.001613
960.0,0.001861
961.0,0.002154
962.0,0.002002
963.0,0.00258
964.0,0.002285
965.0,0.002394
966.0,0.002738
967.0,0.003015
968.0,0.006753
969.0,0.004475
970.0,0.005723
971.0,0.005816
972.0,0.006269
973.0,0.003836
974.0,0.003527
975.0,0.004605
976.0,0.004386
977.0,0.006149
978.0,0.004337
979.0,0.005262
980.0,0.005172
981.0,0.006213
982.0,0.005355
983.0,0.005037
984.0,0.007795
985.0,0.005127
986.0,0.009997
987.0,0.00751
988.0,0.008071
989.0,0.01045
990.0,0.007346
991.0,0.01033
992.0,0.01065
993.0,0.00858
994.0,0.01084
995.0,0.01112
996.0,0.01082
997.0,0.01085
998.0,0.0107
999.0,0.01076
1000.0,0.0106
1001.0,0.0109
1002.0,0.009014
1003.0,0.01073
1004.0,0.009798
1005.0,0.009926
1006.0,0.0103
1007.0,0.0105
1008.0,0.01019
1009.0,0.009762
1010.0,0.009709
1011.0,0.0103
1012.0,0.01011
1013.0,0.01051
1014.0,0.01044
1015.0,0.0104
1016.0,0.01023
1017.0,0.01013
1018.0,0.01033
1019.0,0.009346
1020.0,0.01024
1021.0,0.0103
1022.0,0.01002
1023.0,0.01008
1024.0,0.009214
1025.0,0.01025
1026.0,0.009899
1027.0,0.01017
1028.0,0.009946
1029.0,0.009696
1030.0,0.009958
1031.0,0.009986
1032.0,0.009858
1033.0,0.009791
1034.0,0.009747
1035.0,0.00979
1036.0,0.009687
1037.0,0.009601
1038.0,0.009594
1039.0,0.009513
1040.0,0.009454
1041.0,0.009397
1042.0,0.009323
1043.0,0.00924
1044.0,0.009207
1045.0,0.009022
1046.0,0.00886
1047.0,0.008866
1048.0,0.008835
1049.0,0.008727
1050.0,0.008601
1051.0,0.00849
1052.0,0.008363
1053.0,0.008182
1054.0,0.00808
1055.0,0.007946
1056.0,0.007764
1057.0,0.007634
1058.0,0.007333
1059.0,0.007198
1060.0,0.007132
1061.0,0.007044
1062.0,0.007036
1063.0,0.006791
1064.0,0.006911
1065.0,0.006578
1066.0,0.006646
1067.0,0.006717
1068.0,0.006402
1069.0,0.006355
1070.0,0.006658
1071.0,0.007047
1072.0,0.006683
1073.0,0.006702
1074.0,0.007338
1075.0,0.005695
1076.0,0.007427
1077.0,0.006501
1078.0,0.005852
1079.0,0.007604
1080.0,0.006322
1081.0,0.005402
1082.0,0.006772
1083.0,0.007025
1084.0,0.005475
1085.0,0.006541
1086.0,0.005106
1087.0,0.005335
1088.0,0.00689
1089.0,0.005287
1090.0,0.005074
1091.0,0.006254
1092.0,0.006581
1093.0,0.003676
1094.0,0.005539
1095.0,0.003419
1096.0,0.002999
1097.0,0.006642
1098.0,0.002966
1099.0,0.002855
1100.0,0.002309
1101.0,0.002537
1102.0,0.002181
1103.0,0.001821
1104.0,0.002115
1105.0,0.002371
1106.0,0.001169
1107.0,0.002219
1108.0,0.001282
1109.0,0.001408
1110.0,0.001657
1111.0,0.0008793
1112.0,0.001566
1113.0,0.000678
1114.0,0.0007522
1115.0,0.0006122
1116.0,0.0004717
1117.0,0.0001697
1118.0,0.0005109
1119.0,0.0002501
1120.0,0.0003136
1121.0,0.0004163
1122.0,0.0001725
1123.0,0.0002806
1124.0,0.0002361
1125.0,0.0003075
1126.0,0.0001046
1127.0,0.0003448
1128.0,0.0002033
1129.0,0.0002153
1130.0,0.0001403
1131.0,0.0006509
1132.0,0.0005079
1133.0,0.0003178
1134.0,7.92e-05
1135.0,2.968e-05
1136.0,0.0002614
1137.0,0.0006258
1138.0,0.0004388
1139.0,0.0006604
1140.0,0.0005464
1141.0,0.000413
1142.0,0.0004748
1143.0,0.0006746
1144.0,0.0002321
1145.0,0.0002947
1146.0,0.0003167
1147.0,0.0001089
1148.0,0.0005745
1149.0,0.0004551
1150.0,0.000245
1151.0,0.0004173
1152.0,0.0005143
1153.0,0.0005028
1154.0,0.0002773
1155.0,0.0006585
1156.0,0.0005946
1157.0,0.0006982
1158.0,0.0006723
1159.0,0.0007485
1160.0,0.0006617
1161.0,0.001112
1162.0,0.00145
1163.0,0.001882
1164.0,0.001877
1165.0,0.001097
1166.0,0.001824
1167.0,0.001825
1168.0,0.001652
1169.0,0.001887
1170.0,0.002537
1171.0,0.002164
1172.0,0.003615
1173.0,0.002232
1174.0,0.001158
1175.0,0.002828
1176.0,0.004906
1177.0,0.003218
1178.0,0.00179
1179.0,0.004549
1180.0,0.004037
1181.0,0.00252
1182.0,0.001087
1183.0,0.002654
1184.0,0.003532
1185.0,0.002587
1186.0,0.003285
1187.0,0.002413
1188.0,0.001179
1189.0,0.002633
1190.0,0.003654
1191.0,0.002346
1192.0,0.003797
1193.0,0.004394
1194.0,0.003605
1195.0,0.002508
1196.0,0.002065
1197.0,0.003539
1198.0,0.00345
1199.0,0.001626
1200.0,0.00292
1201.0,0.002248
1202.0,0.003207
1203.0,0.002231
1204.0,0.003653
1205.0,0.004274
1206.0,0.004836
1207.0,0.002756
1208.0,0.003097
1209.0,0.003411
1210.0,0.004492
1211.0,0.003674
1212.0,0.002118
1213.0,0.003934
1214.0,0.002486
1215.0,0.002214
1216.0,0.004418
1217.0,0.00395
1218.0,0.004317
1219.0,0.004062
1220.0,0.00433
1221.0,0.004722
1222.0,0.004396
1223.0,0.004186
1224.0,0.003729
1225.0,0.004206
1226.0,0.004921
1227.0,0.003251
1228.0,0.005602
1229.0,0.00479
1230.0,0.004508
1231.0,0.005958
1232.0,0.005934
1233.0,0.003756
1234.0,0.006365
1235.0,0.005913
1236.0,0.006286
1237.0,0.005334
1238.0,0.006267
1239.0,0.006214
1240.0,0.006329
1241.0,0.005912
1242.0,0.00618
1243.0,0.006197
1244.0,0.005995
1245.0,0.006171
1246.0,0.00617
1247.0,0.005918
1248.0,0.005717
1249.0,0.005915
1250.0,0.005666
1251.0,0.005207
1252.0,0.005738
1253.0,0.004791
1254.0,0.004324
1255.0,0.005545
1256.0,0.003916
1257.0,0.003633
1258.0,0.004709
1259.0,0.002834
1260.0,0.00303
1261.0,0.001677
1262.0,0.001269
1263.0,0.001273
1264.0,0.0007744
1265.0,0.001252
1266.0,0.000928
1267.0,0.001127
1268.0,0.0008181
1269.0,0.0003505
1270.0,0.001029
1271.0,0.001787
1272.0,0.001839
1273.0,0.001715
1274.0,0.001913
1275.0,0.002071
1276.0,0.002397
1277.0,0.002801
1278.0,0.003465
1279.0,0.003485
1280.0,0.003703
1281.0,0.004008
1282.0,0.004328
1283.0,0.004506
1284.0,0.004818
1285.0,0.004805
1286.0,0.005154
1287.0,0.004991
1288.0,0.004886
1289.0,0.003132
1290.0,0.004943
1291.0,0.005285
1292.0,0.00261
1293.0,0.0047
1294.0,0.004343
1295.0,0.003132
1296.0,0.002429
1297.0,0.002073
1298.0,0.003038
1299.0,0.004354
1300.0,0.001687
1301.0,0.001581
1302.0,0.00298
1303.0,0.002728
1304.0,0.0008643
1305.0,0.002604
1306.0,0.002049
1307.0,0.001282
1308.0,0.001928
1309.0,0.001854
1310.0,0.001443
1311.0,0.00232
1312.0,0.001526
1313.0,0.001223
1314.0,0.0006307
1315.0,0.0006196
1316.0,0.001805
1317.0,0.002378
1318.0,0.002372
1319.0,0.0009286
1320.0,0.0006242
1321.0,0.001065
1322.0,0.0006385
1323.0,0.0003603
1324.0,0.0008741
1325.0,0.000961
1326.0,0.0007547
1327.0,0.0006019
1328.0,0.0003417
1329.0,0.0002255
1330.0,0.000297
1331.0,0.000176
1332.0,0.0001784
1333.0,0.0002492
1334.0,0.000226
1335.0,0.0002979
1336.0,0.0002306
1337.0,0.0002057
1338.0,0.0002171
1339.0,0.0002167
1340.0,0.0002102
1341.0,0.0002018
1342.0,0.0002116
1343.0,0.0001421
1344.0,8.489e-05
1345.0,0.0001221
1346.0,6.023e-05
1347.0,6.102e-05
1348.0,3.934e-06
1349.0,1.411e-05
1350.0,1.463e-05
1351.0,3.537e-06
1352.0,9.516e-07
1353.0,4.843e-08
1354.0,1.665e-07
1355.0,1.341e-09
1356.0,2.346e-08
1357.0,3.565e-08
1358.0,1.574e-09
1359.0,1.983e-10
1360.0,7.168e-10
1361.0,8.019e-13
1362.0,2.194e-15
1363.0,9.641e-10
1364.0,3.98e-10
1365.0,7.661e-16
1366.0,4.179e-09
1367.0,1.706e-09
1368.0,5.917e-18
1369.0,1.467e-10
1370.0,7.227e-11
1371.0,4.097e-12
1372.0,9.256e-10
1373.0,1.865e-08
1374.0,8.65e-08
1375.0,1.569e-07
1376.0,1.407e-07
1377.0,6.428e-08
1378.0,6.285e-07
1379.0,2.686e-08
1380.0,3.861e-08
1381.0,1.006e-09
1382.0,8.118e-10
1383.0,1.214e-11
1384.0,1.592e-10
1385.0,7.612e-10
1386.0,7.16e-10
1387.0,8.66e-08
1388.0,1.704e-09
1389.0,2.925e-07
1390.0,2.51e-07
1391.0,1.67e-07
1392.0,1.082e-08
1393.0,5.734e-08
1394.0,2.955e-08
1395.0,2.166e-10
1396.0,1.047e-12
1397.0,2.258e-08
1398.0,6.677e-07
1399.0,4.224e-07
1400.0,4.478e-13
1401.0,1.858e-12
1402.0,1.17e-06
1403.0,1.466e-06
1404.0,4.454e-07
1405.0,1.026e-10
1406.0,1.151e-06
1407.0,1.015e-07
1408.0,9.369e-07
1409.0,3.123e-07
1410.0,2.501e-07
1411.0,1.261e-06
1412.0,1.702e-06
1413.0,1.771e-05
1414.0,1.953e-07
1415.0,9.327e-08
1416.0,2.928e-05
1417.0,8.646e-06
1418.0,9.791e-06
1419.0,1.507e-06
1420.0,5.951e-06
1421.0,6.42e-06
1422.0,3.764e-05
1423.0,7.221e-06
1424.0,1.355e-05
1425.0,1.98e-05
1426.0,2.266e-05
1427.0,4.215e-05
1428.0,2.95e-06
1429.0,3.105e-05
1430.0,5.357e-05
1431.0,5.89e-05
1432.0,2.293e-06
1433.0,3.696e-05
1434.0,1.859e-05
1435.0,1.802e-05
1436.0,3.549e-05
1437.0,2.713e-05
1438.0,1.12e-05
1439.0,4.824e-05
1440.0,3.602e-05
1441.0,2.694e-05
1442.0,2.984e-05
1443.0,3.807e-05
1444.0,5.3e-05
1445.0,4.072e-05
1446.0,1.806e-05
1447.0,2.847e-05
1448.0,0.0001009
1449.0,8.668e-05
1450.0,2.099e-05
1451.0,8.262e-06
1452.0,5.102e-05
1453.0,6.725e-05
1454.0,0.0001183
1455.0,5.446e-05
1456.0,7.259e-05
1457.0,9.894e-05
1458.0,0.0001185
1459.0,0.0001393
1460.0,7.137e-05
1461.0,7.337e-05
1462.0,0.000109
1463.0,3.417e-05
1464.0,0.0001301
1465.0,7.787e-05
1466.0,5.154e-05
1467.0,2.637e-05
1468.0,6.1e-05
1469.0,7.568e-05
1470.0,3.636e-05
1471.0,1.289e-05
1472.0,3.456e-05
1473.0,5.374e-05
1474.0,7.988e-05
1475.0,0.0001534
1476.0,5.346e-05
1477.0,5.339e-05
1478.0,4.988e-05
1479.0,9.726e-05
1480.0,4.572e-05
1481.0,9.202e-05
1482.0,4.472e-05
1483.0,0.0001198
1484.0,0.0001141
1485.0,9.911e-05
1486.0,9.676e-05
1487.0,4.314e-05
1488.0,7.785e-05
1489.0,0.0001559
1490.0,0.0001698
1491.0,0.0002046
1492.0,0.0001359
1493.0,0.0001679
1494.0,0.000271
1495.0,0.000202
1496.0,0.0001687
1497.0,0.0005668
1498.0,0.0003929
1499.0,0.000325
1500.0,0.001061
1501.0,0.0009016
1502.0,0.001002
1503.0,0.0004246
1504.0,0.0001312
1505.0,0.0003317
1506.0,0.00133
1507.0,0.001188
1508.0,0.001403
1509.0,0.0005747
1510.0,0.001624
1511.0,0.001043
1512.0,0.001731
1513.0,0.0006927
1514.0,0.0006418
1515.0,0.001965
1516.0,0.001754
1517.0,0.001062
1518.0,0.001467
1519.0,0.0009496
1520.0,0.001418
1521.0,0.003252
1522.0,0.001922
1523.0,0.003353
1524.0,0.002357
1525.0,0.001524
1526.0,0.001814
1527.0,0.002045
1528.0,0.002965
1529.0,0.002437
1530.0,0.002007
1531.0,0.002257
1532.0,0.003466
1533.0,0.00372
1534.0,0.003936
1535.0,0.003419
1536.0,0.003504
1537.0,0.003968
1538.0,0.003747
1539.0,0.003652
1540.0,0.003734
1541.0,0.003642
1542.0,0.003507
1543.0,0.003793
1544.0,0.003669
1545.0,0.003887
1546.0,0.003426
1547.0,0.003659
1548.0,0.00368
1549.0,0.003913
1550.0,0.003786
1551.0,0.003633
1552.0,0.003775
1553.0,0.003792
1554.0,0.003626
1555.0,0.003786
1556.0,0.003685
1557.0,0.003785
1558.0,0.003794
1559.0,0.003757
1560.0,0.003687
1561.0,0.003739
1562.0,0.003633
1563.0,0.003539
1564.0,0.003505
1565.0,0.003798
1566.0,0.003573
1567.0,0.003618
1568.0,0.003528
1569.0,0.003736
1570.0,0.003705
1571.0,0.003692
1572.0,0.003685
1573.0,0.003557
1574.0,0.003328
1575.0,0.003249
1576.0,0.002911
1577.0,0.002804
1578.0,0.002814
1579.0,0.002607
1580.0,0.002724
1581.0,0.002698
1582.0,0.00271
1583.0,0.002641
1584.0,0.003147
1585.0,0.003282
1586.0,0.003236
1587.0,0.003103
1588.0,0.003419
1589.0,0.00336
1590.0,0.003282
1591.0,0.003458
1592.0,0.003375
1593.0,0.003565
1594.0,0.003507
1595.0,0.003512
1596.0,0.003326
1597.0,0.003173
1598.0,0.003539
1599.0,0.003554
1600.0,0.003625
1601.0,0.003425
1602.0,0.003317
1603.0,0.003603
1604.0,0.003545
1605.0,0.003592
1606.0,0.003529
1607.0,0.003576
1608.0,0.003271
1609.0,0.003424
1610.0,0.003314
1611.0,0.003385
1612.0,0.003508
1613.0,0.003333
1614.0,0.003453
1615.0,0.003388
1616.0,0.003346
1617.0,0.003186
1618.0,0.003461
1619.0,0.003152
1620.0,0.003356
1621.0,0.003312
1622.0,0.003342
1623.0,0.003424
1624.0,0.003246
1625.0,0.003181
1626.0,0.003196
1627.0,0.0033
1628.0,0.003156
1629.0,0.003257
1630.0,0.003163
1631.0,0.002864
1632.0,0.003069
1633.0,0.002352
1634.0,0.003089
1635.0,0.002322
1636.0,0.002761
1637.0,0.00294
1638.0,0.001736
1639.0,0.002864
1640.0,0.001629
1641.0,0.002651
1642.0,0.002992
1643.0,0.001273
1644.0,0.003162
1645.0,0.001943
1646.0,0.00123
1647.0,0.00312
1648.0,0.001249
1649.0,0.002596
1650.0,0.002741
1651.0,0.0009947
1652.0,0.002437
1653.0,0.002952
1654.0,0.001341
1655.0,0.002738
1656.0,0.002054
1657.0,0.002353
1658.0,0.002994
1659.0,0.002749
1660.0,0.00273
1661.0,0.002884
1662.0,0.002196
1663.0,0.002924
1664.0,0.00285
1665.0,0.001285
1666.0,0.0001585
1667.0,0.00132
1668.0,0.002474
1669.0,0.002606
1670.0,0.002901
1671.0,0.002508
1672.0,0.002775
1673.0,0.002872
1674.0,0.002214
1675.0,0.002382
1676.0,0.002751
1677.0,0.002284
1678.0,0.001771
1679.0,0.002822
1680.0,0.00236
1681.0,0.001775
1682.0,0.002764
1683.0,0.002863
1684.0,0.0009516
1685.0,0.002802
1686.0,0.002797
1687.0,0.001791
1688.0,0.002539
1689.0,0.002631
1690.0,0.002364
1691.0,0.001044
1692.0,0.002102
1693.0,0.002797
1694.0,0.001871
1695.0,0.002513
1696.0,0.002738
1697.0,0.0006438
1698.0,0.002354
1699.0,0.00245
1700.0,0.001973
1702.0,0.002339
1705.0,0.001801
1710.0,0.001569
1715.0,0.001883
1720.0,0.001976
1725.0,0.0009995
1730.0,0.001731
1735.0,0.001233
1740.0,0.001421
1745.0,0.001757
1750.0,0.0007531
1755.0,0.001129
1760.0,0.0006276
1765.0,0.0006036
1770.0,0.0003944
1775.0,0.0003519
1780.0,0.0001992
1785.0,8.454e-05
1790.0,4.822e-05
1795.0,1.64e-05
1800.0,1.129e-05
1805.0,4.482e-06
1810.0,2.91e-06
1815.0,8.418e-07
1820.0,2.106e-07
1825.0,2.749e-07
1830.0,6.7e-10
1835.0,1.015e-09
1840.0,5.921e-12
1845.0,6.331e-10
1850.0,2.858e-10
1855.0,2.732e-11
1860.0,1.565e-09
1865.0,2.182e-09
1870.0,1.194e-14
1875.0,2.158e-14
1880.0,1.149e-08
1885.0,6.125e-09
1890.0,3.359e-08
1895.0,1.949e-08
1900.0,8.333e-11
1905.0,5.676e-11
1910.0,2.749e-09
1915.0,2.678e-09
1920.0,7.025e-08
1925.0,1.651e-07
1930.0,9.533e-08
1935.0,7.267e-07
1940.0,7.216e-07
1945.0,2.973e-06
1950.0,5.781e-06
1955.0,5.155e-06
1960.0,9.068e-06
1965.0,9.997e-05
1970.0,0.000153
1975.0,0.0001799
1980.0,5.733e-05
1985.0,9.76e-05
1990.0,0.0003951
1995.0,0.0002878
2000.0,0.000496
2005.0,0.0002463
2010.0,0.0009687
2015.0,0.0001971
2020.0,0.000391
2025.0,0.0007335
2030.0,0.0004544
2035.0,0.0009477
2040.0,0.0006726
2045.0,0.0007536
2050.0,0.001146
2055.0,0.0007414
2060.0,0.0006347
2065.0,0.0009297
2070.0,0.0007817
2075.0,0.001079
2080.0,0.001125
2085.0,0.001116
2090.0,0.001154
2095.0,0.001029
2100.0,0.000715
2105.0,0.00104
2110.0,0.0007554
2115.0,0.001054
2120.0,0.000705
2125.0,0.0009106
2130.0,0.00109
2135.0,0.001157
2140.0,0.001184
2145.0,0.001171
2150.0,0.0006755
2155.0,0.0006488
2160.0,0.0007267
2165.0,0.0006065
2170.0,0.0008101
2175.0,0.0005808
2180.0,0.0007583
2185.0,0.0004787
2190.0,0.0006979
2195.0,0.0006339
2200.0,0.00014
2205.0,0.0003977
2210.0,0.0008905
2215.0,0.0005799
2220.0,0.0006769
2225.0,0.0005566
2230.0,0.0005676
2235.0,0.0004699
2240.0,0.0004508
2245.0,0.0002753
2250.0,0.0004398
2255.0,0.0001798
2260.0,0.0001589
2265.0,0.0002651
2270.0,0.0001123
2275.0,9.893e-05
2280.0,0.0002507
2285.0,0.0001013
2290.0,0.0001094
2295.0,9.836e-05
2300.0,4.881e-05
2305.0,5.901e-05
2310.0,0.0002743
2315.0,6.184e-05
2320.0,2.322e-05
2325.0,0.0001489
2330.0,8.077e-05
2335.0,0.0001115
2340.0,1.871e-05
2345.0,2.369e-05
2350.0,1.585e-05
2355.0,1.898e-05
2360.0,2.45e-05
2365.0,8.052e-05
2370.0,3.879e-06
2375.0,1.686e-05
2380.0,4.765e-05
2385.0,6.709e-06
2390.0,7.73e-06
2395.0,9.798e-06
2400.0,1.093e-05
2405.0,1.863e-05
2410.0,1.521e-05
2415.0,3.775e-06
2420.0,3.246e-06
2425.0,4.192e-06
2430.0,7.097e-06
2435.0,1.593e-06
2440.0,7.206e-06
2445.0,2.251e-06
2450.0,1.401e-06
2455.0,4.19e-06
2460.0,3.611e-06
2465.0,2.499e-06
2470.0,1.648e-06
2475.0,1.597e-06
2480.0,7.492e-07
2485.0,4.861e-07
2490.0,2.796e-07
2495.0,2.419e-07
2500.0,6e-07
2505.0,1.22e-07
2510.0,1.795e-07
2515.0,4.327e-08
2520.0,2.136e-08
2525.0,2.436e-09
2530.0,1.696e-11
2535.0,3.75e-12
2540.0,8.898e-12
2545.0,6.901e-16
2550.0,2.798e-18
2555.0,1.343e-14
2560.0,4.03e-16
2565.0,9.023000000000001e-20
2570.0,2.687e-24
2575.0,1.7e-34
2580.0,1.772e-28
2585.0,3.7040000000000004e-42
2590.0,2.311e-38
2595.0,4.497e-40
2600.0,3.702e-35
2605.0,4.0920000000000004e-42
2610.0,1.408e-41
2615.0,1.4009999999999999e-45
2620.0,1.241e-35
2625.0,2.2730000000000002e-35
2630.0,0.0
2635.0,1.184e-21
2640.0,2.562e-22
2645.0,1.117e-24
2650.0,1.112e-25
2655.0,1.338e-34
2660.0,1.126e-31
2665.0,1.121e-44
2670.0,0.0
2675.0,5.464999999999999e-44
2680.0,2.284e-30
2685.0,2.182e-31
2690.0,8.164e-31
2695.0,3.203e-33
2700.0,9.329e-29
2705.0,2.6460000000000004e-26
2710.0,2.107e-31
2715.0,2.6599999999999997e-29
2720.0,0.0
2725.0,5.9569999999999995e-27
2730.0,1.737e-24
2735.0,1.98e-26
2740.0,3.5780000000000004e-32
2745.0,4.613e-27
2750.0,2.585e-26
2755.0,4.16e-28
2760.0,6.232e-23
2765.0,2.925e-29
2770.0,1.437e-26
2775.0,1.7749999999999998e-23
2780.0,8.262000000000001e-21
2785.0,3.1020000000000004e-20
2790.0,7.073e-18
2795.0,1.557e-18
2800.0,4.967e-15
2805.0,9.288e-17
2810.0,3.724e-13
2815.0,1.111e-13
2820.0,1.357e-15
2825.0,7.653e-11
2830.0,2.589e-10
2835.0,3.566e-15
2840.0,7.631e-12
2845.0,2.641e-09
2850.0,4.571e-11
2855.0,1.837e-11
2860.0,9.502e-10
2865.0,7e-09
2870.0,1.777e-10
2875.0,1.704e-08
2880.0,1.074e-08
2885.0,1.769e-08
2890.0,7.613e-09
2895.0,1.282e-07
2900.0,3.572e-08
2905.0,4.135e-09
2910.0,1.307e-07
2915.0,5.548e-08
2920.0,1.377e-07
2925.0,4.908e-08
2930.0,2.97e-07
2935.0,3.275e-07
2940.0,7.333e-08
2945.0,6.297e-08
2950.0,2.542e-07
2955.0,1.132e-07
2960.0,2.246e-07
2965.0,3.802e-07
2970.0,1.49e-08
2975.0,3.774e-08
2980.0,5.873e-08
2985.0,3.457e-07
2990.0,5.314e-07
2995.0,2.009e-07
3000.0,3.791e-07
3005.0,1.286e-07
3010.0,3.324e-07
3015.0,2.568e-07
3020.0,2.317e-08
3025.0,3.532e-07
3030.0,2.786e-07
3035.0,1.058e-07
3040.0,8.268e-08
3045.0,1.776e-07
3050.0,4.025e-08
3055.0,9.865e-09
3060.0,2.764e-07
3065.0,1.17e-07
3070.0,6.575e-08
3075.0,2.576e-07
3080.0,1.497e-07
3085.0,6.609e-08
3090.0,8.987e-08
3095.0,2.211e-08
3100.0,1.796e-07
3105.0,3.366e-08
3110.0,2.817e-08
3115.0,8.454e-08
3120.0,4.142e-07
3125.0,9.353e-07
3130.0,2.416e-07
3135.0,4.861e-07
3140.0,1.289e-07
3145.0,1.263e-07
3150.0,2.664e-07
3155.0,2.264e-07
3160.0,3.757e-07
3165.0,6.38e-07
3170.0,6.481e-07
3175.0,3.64e-07
3180.0,4.509e-07
3185.0,2.998e-07
3190.0,1.584e-07
3195.0,8.722e-08
3200.0,1.231e-08
3205.0,8.041e-09
3210.0,3.35e-09
3215.0,1.362e-08
3220.0,4.781e-08
3225.0,5.499e-09
3230.0,9.132e-09
3235.0,2.559e-07
3240.0,1.164e-07
3245.0,2.209e-08
3250.0,8.147e-08
3255.0,3.49e-07
3260.0,3.486e-08
3265.0,7.545e-08
3270.0,3.553e-08
3275.0,2.144e-07
3280.0,9.107e-08
3285.0,3.973e-07
3290.0,2.968e-07
3295.0,3.655e-08
3300.0,5.426e-08
3305.0,1.246e-07
3310.0,1.183e-07
3315.0,1.715e-10
3320.0,1.08e-09
3325.0,9.936e-08
3330.0,1.518e-07
3335.0,2.936e-07
3340.0,9.083e-07
3345.0,1.045e-07
3350.0,2.693e-07
3355.0,1.058e-07
3360.0,1.627e-07
3365.0,2.714e-07
3370.0,1.108e-07
3375.0,4.47e-07
3380.0,1.459e-07
3385.0,6.502e-07
3390.0,3.25e-07
3395.0,5.355e-07
3400.0,4.836e-06
3405.0,1.215e-07
3410.0,7.12e-07
3415.0,2.083e-07
3420.0,1.467e-05
3425.0,4.081e-07
3430.0,2.553e-07
3435.0,1.245e-05
3440.0,2.302e-07
3445.0,4.165e-06
3450.0,1.288e-06
3455.0,3.556e-07
3460.0,1.798e-05
3465.0,3.783e-07
3470.0,1.718e-05
3475.0,2.124e-06
3480.0,2.199e-06
3485.0,1.38e-05
3490.0,1.153e-06
3495.0,1.447e-05
3500.0,1.41e-05
3505.0,1.13e-05
3510.0,1.301e-05
3515.0,1.125e-05
3520.0,2.205e-05
3525.0,2.005e-05
3530.0,9.67e-06
3535.0,1.146e-06
3540.0,8.666e-07
3545.0,8.678e-07
3550.0,8.314e-06
3555.0,1.602e-06
3560.0,1.423e-05
3565.0,6.365e-06
3570.0,1.593e-06
3575.0,8.439e-07
3580.0,6.472e-06
3585.0,1.593e-06
3590.0,4.48e-06
3595.0,1.361e-05
3600.0,2.003e-05
3605.0,7.196e-06
3610.0,5.164e-06
3615.0,1.496e-05
3620.0,5.428e-05
3625.0,1.041e-05
3630.0,1.777e-05
3635.0,2.192e-05
3640.0,6.802e-05
3645.0,1.495e-05
3650.0,1.754e-05
3655.0,3.965e-05
3660.0,4.994e-05
3665.0,1.095e-05
3670.0,4.77e-06
3675.0,1.87e-07
3680.0,2.798e-06
3685.0,7.28e-06
3690.0,6.912e-06
3695.0,2.709e-05
3700.0,6.932e-05
3705.0,6.416e-05
3710.0,1.302e-05
3715.0,2.259e-05
3720.0,4.508e-05
3725.0,5.524e-05
3730.0,2.071e-05
3735.0,1.002e-05
3740.0,1.987e-05
3745.0,5.16e-05
3750.0,3.028e-05
3755.0,1.967e-05
3760.0,1.077e-05
3765.0,1.317e-05
3770.0,1.928e-05
3775.0,2.194e-05
3780.0,3.795e-05
3785.0,2.078e-05
3790.0,8.688e-06
3795.0,2.888e-05
3800.0,5.404e-05
3805.0,3.81e-05
3810.0,1.538e-05
3815.0,1.185e-05
3820.0,5.31e-05
3825.0,5.269e-05
3830.0,5.499e-05
3835.0,8.939e-06
3840.0,2.951e-05
3845.0,1.871e-05
3850.0,1.888e-05
3855.0,1.448e-05
3860.0,3.705e-06
3865.0,3.954e-06
3870.0,8.741e-07
3875.0,2.787e-07
3880.0,1.902e-07
3885.0,2.71e-07
3890.0,3.339e-07
3895.0,1.154e-06
3900.0,4.972e-06
3905.0,4.067e-06
3910.0,6.245e-07
3915.0,4.794e-07
3920.0,5.139e-07
3925.0,4.815e-07
3930.0,6.887e-07
3935.0,1.431e-06
3940.0,1.806e-06
3945.0,2.676e-06
3950.0,4.081e-06
3955.0,5.077e-06
3960.0,6.156e-06
3965.0,7.171e-06
3970.0,6.113e-06
3975.0,4.059e-06
3980.0,3.438e-06
3985.0,4.027e-06
3990.0,3.438e-06
3995.0,2.499e-06
4000.0,1.823e-06
