interpolation:linear
wavelength,value
280.0,2.126e-19
280.5,3.648e-18
281.0,1.563e-17
281.5,2.656e-16
282.0,1.458e-15
282.5,4.341e-15
283.0,1.45e-14
283.5,2.371e-14
284.0,3.184e-13
284.5,8.124e-13
285.0,1.518e-12
285.5,8.3e-12
286.0,3.375e-11
286.5,1.478e-10
287.0,4.105e-10
287.5,1.514e-09
288.0,4.122e-09
288.5,1.343e-08
289.0,3.675e-08
289.5,1.098e-07
290.0,2.968e-07
290.5,5.863e-07
291.0,1.2e-06
291.5,3.216e-06
292.0,6.559e-06
292.5,8.67e-06
293.0,1.717e-05
293.5,3.736e-05
294.0,5.367e-05
294.5,9.997e-05
295.0,0.00016
295.5,0.0002966
296.0,0.0004906
296.5,0.000591
297.0,0.0007092
297.5,0.001597
298.0,0.002176
298.5,0.001961
299.0,0.003891
299.5,0.005398
300.0,0.00539
300.5,0.007077
301.0,0.01099
301.5,0.01532
302.0,0.01226
302.5,0.02167
303.0,0.03432
303.5,0.04005
304.0,0.03591
304.5,0.0476
305.0,0.06141
305.5,0.06367
306.0,0.05929
306.5,0.06935
307.0,0.08994
307.5,0.1055
308.0,0.1091
308.5,0.1213
309.0,0.1119
309.5,0.1172
310.0,0.1129
310.5,0.179
311.0,0.217
311.5,0.2062
312.0,0.1914
312.5,0.2216
313.0,0.234
313.5,0.2326
314.0,0.274
314.5,0.2246
315.0,0.2909
315.5,0.2524
316.0,0.2069
316.5,0.2814
317.0,0.3495
317.5,0.369
318.0,0.2773
318.5,0.3209
319.0,0.3681
319.5,0.3166
320.0,0.3855
320.5,0.4503
321.0,0.3786
321.5,0.3606
322.0,0.4083
322.5,0.3538
323.0,0.3383
323.5,0.3953
324.0,0.4578
324.5,0.4732
325.0,0.4217
325.5,0.5248
326.0,0.6265
326.5,0.6123
327.0,0.6151
327.5,0.6004
328.0,0.5517
328.5,0.5574
329.0,0.6475
329.5,0.728
330.0,0.7392
330.5,0.6049
331.0,0.6208
331.5,0.6198
332.0,0.653
332.5,0.6386
333.0,0.6404
333.5,0.5898
334.0,0.6057
334.5,0.6843
335.0,0.6353
335.5,0.7409
336.0,0.5123
336.5,0.6035
337.0,0.499
337.5,0.6222
338.0,0.5973
338.5,0.6883
339.0,0.6807
339.5,0.6543
340.0,0.7693
340.5,0.692
341.0,0.6747
341.5,0.619
342.0,0.7393
342.5,0.6912
343.0,0.7599
343.5,0.7153
344.0,0.5281
344.5,0.5332
345.0,0.705
345.5,0.7191
346.0,0.6107
346.5,0.691
347.0,0.7415
347.5,0.5992
348.0,0.6826
348.5,0.6819
349.0,0.6321
349.5,0.6254
350.0,0.773
350.5,0.815
351.0,0.7279
351.5,0.7073
352.0,0.7591
352.5,0.5919
353.0,0.7449
353.5,0.7961
354.0,0.8261
354.5,0.8376
355.0,0.8345
355.5,0.7533
356.0,0.7877
356.5,0.6724
357.0,0.5555
357.5,0.6799
358.0,0.5386
358.5,0.4601
359.0,0.6434
359.5,0.82
360.0,0.8689
360.5,0.6942
361.0,0.6324
361.5,0.7274
362.0,0.6284
362.5,0.8689
363.0,0.7798
363.5,0.7178
364.0,0.8773
364.5,0.7496
365.0,0.7631
365.5,0.9573
366.0,1.014
366.5,0.9518
367.0,0.9265
367.5,0.9612
368.0,0.8408
368.5,0.848
369.0,0.9154
369.5,0.9753
370.0,1.039
370.5,0.8061
371.0,0.861
371.5,1.077
372.0,0.7146
372.5,0.8564
373.0,0.8707
373.5,0.5663
374.0,0.8225
374.5,0.6808
375.0,0.6616
375.5,0.9876
376.0,0.8185
376.5,0.8481
377.0,0.8975
377.5,1.05
378.0,1.138
378.5,1.075
379.0,0.8872
379.5,0.8104
380.0,0.8424
380.5,1.02
381.0,1.021
381.5,0.8092
382.0,0.7182
382.5,0.6119
383.0,0.5662
383.5,0.5451
384.0,0.6011
384.5,0.8838
385.0,0.8762
385.5,0.8156
386.0,0.6983
386.5,0.9168
387.0,0.7617
387.5,0.8553
388.0,0.7895
388.5,0.7801
389.0,0.8419
389.5,1.019
390.0,1.023
390.5,0.9409
391.0,1.107
391.5,1.129
392.0,0.9508
392.5,0.8508
393.0,0.4732
393.5,0.3439
394.0,0.6996
394.5,0.8891
395.0,1.085
395.5,1.102
396.0,0.955
396.5,0.558
397.0,0.4186
397.5,0.8511
398.0,1.192
398.5,1.232
399.0,1.333
399.5,1.328
400.0,1.379
401.0,1.405
402.0,1.481
403.0,1.405
404.0,1.383
405.0,1.382
406.0,1.359
407.0,1.336
408.0,1.388
409.0,1.485
410.0,1.296
411.0,1.403
412.0,1.506
413.0,1.468
414.0,1.485
415.0,1.488
416.0,1.513
417.0,1.475
418.0,1.447
419.0,1.465
420.0,1.458
421.0,1.525
422.0,1.449
423.0,1.415
424.0,1.496
425.0,1.492
426.0,1.452
427.0,1.424
428.0,1.387
429.0,1.313
430.0,1.148
431.0,1.138
432.0,1.468
433.0,1.475
434.0,1.37
435.0,1.431
436.0,1.61
437.0,1.587
438.0,1.444
439.0,1.495
440.0,1.542
441.0,1.596
442.0,1.711
443.0,1.667
444.0,1.702
445.0,1.666
446.0,1.588
447.0,1.715
448.0,1.743
449.0,1.747
450.0,1.795
451.0,1.861
452.0,1.792
453.0,1.685
454.0,1.758
455.0,1.768
456.0,1.81
457.0,1.84
458.0,1.778
459.0,1.768
460.0,1.773
461.0,1.813
462.0,1.826
463.0,1.813
464.0,1.781
465.0,1.757
466.0,1.773
467.0,1.741
468.0,1.761
469.0,1.77
470.0,1.714
471.0,1.711
472.0,1.803
473.0,1.78
474.0,1.784
475.0,1.8
476.0,1.748
477.0,1.755
478.0,1.802
479.0,1.79
480.0,1.792
481.0,1.824
482.0,1.831
483.0,1.807
484.0,1.769
485.0,1.685
486.0,1.472
487.0,1.541
488.0,1.691
489.0,1.697
490.0,1.784
491.0,1.752
492.0,1.655
493.0,1.708
494.0,1.725
495.0,1.74
496.0,1.75
497.0,1.777
498.0,1.694
499.0,1.716
500.0,1.667
501.0,1.638
502.0,1.617
503.0,1.685
504.0,1.649
505.0,1.702
506.0,1.757
507.0,1.672
508.0,1.618
509.0,1.661
510.0,1.651
511.0,1.694
512.0,1.712
513.0,1.62
514.0,1.608
515.0,1.592
516.0,1.588
517.0,1.411
518.0,1.483
519.0,1.556
520.0,1.613
521.0,1.628
522.0,1.63
523.0,1.601
524.0,1.66
525.0,1.681
526.0,1.606
527.0,1.515
528.0,1.603
529.0,1.69
530.0,1.667
531.0,1.692
532.0,1.634
533.0,1.586
534.0,1.632
535.0,1.667
536.0,1.682
537.0,1.615
538.0,1.643
539.0,1.629
540.0,1.562
541.0,1.575
542.0,1.625
543.0,1.606
544.0,1.636
545.0,1.63
546.0,1.639
547.0,1.637
548.0,1.616
549.0,1.621
550.0,1.64
551.0,1.62
552.0,1.631
553.0,1.602
554.0,1.641
555.0,1.644
556.0,1.623
557.0,1.573
558.0,1.562
559.0,1.534
560.0,1.554
561.0,1.575
562.0,1.565
563.0,1.609
564.0,1.566
565.0,1.554
566.0,1.532
567.0,1.562
568.0,1.552
569.0,1.522
570.0,1.52
571.0,1.509
572.0,1.55
573.0,1.567
574.0,1.563
575.0,1.535
576.0,1.521
577.0,1.537
578.0,1.512
579.0,1.515
580.0,1.539
581.0,1.544
582.0,1.57
583.0,1.571
584.0,1.583
585.0,1.543
586.0,1.512
587.0,1.547
588.0,1.518
589.0,1.361
590.0,1.422
591.0,1.495
592.0,1.482
593.0,1.497
594.0,1.489
595.0,1.458
596.0,1.502
597.0,1.489
598.0,1.481
599.0,1.481
600.0,1.479
601.0,1.465
602.0,1.455
603.0,1.477
604.0,1.501
605.0,1.493
606.0,1.485
607.0,1.499
608.0,1.481
609.0,1.482
610.0,1.47
611.0,1.477
612.0,1.472
613.0,1.453
614.0,1.432
615.0,1.462
616.0,1.413
617.0,1.41
618.0,1.463
619.0,1.448
620.0,1.457
621.0,1.46
622.0,1.444
623.0,1.423
624.0,1.397
625.0,1.394
626.0,1.415
627.0,1.434
628.0,1.374
629.0,1.412
630.0,1.381
631.0,1.4
632.0,1.381
633.0,1.418
634.0,1.401
635.0,1.421
636.0,1.4
637.0,1.421
638.0,1.432
639.0,1.415
640.0,1.4
641.0,1.398
642.0,1.39
643.0,1.408
644.0,1.403
645.0,1.406
646.0,1.377
647.0,1.37
648.0,1.373
649.0,1.347
650.0,1.341
651.0,1.397
652.0,1.352
653.0,1.378
654.0,1.361
655.0,1.317
656.0,1.163
657.0,1.193
658.0,1.334
659.0,1.342
660.0,1.346
661.0,1.356
662.0,1.361
663.0,1.333
664.0,1.345
665.0,1.344
666.0,1.344
667.0,1.341
668.0,1.341
669.0,1.361
670.0,1.354
671.0,1.353
672.0,1.341
673.0,1.361
674.0,1.355
675.0,1.342
676.0,1.351
677.0,1.337
678.0,1.341
679.0,1.319
680.0,1.329
681.0,1.32
682.0,1.318
683.0,1.316
684.0,1.309
685.0,1.32
686.0,1.313
687.0,1.028
688.0,1.127
689.0,1.128
690.0,1.159
691.0,1.192
692.0,1.213
693.0,1.206
694.0,1.197
695.0,1.228
696.0,1.231
697.0,1.281
698.0,1.262
699.0,1.247
700.0,1.232
701.0,1.224
702.0,1.227
703.0,1.23
704.0,1.26
705.0,1.261
706.0,1.257
707.0,1.256
708.0,1.259
709.0,1.256
710.0,1.258
711.0,1.255
712.0,1.248
713.0,1.238
714.0,1.242
715.0,1.209
716.0,1.211
717.0,1.108
718.0,1.03
719.0,0.9516
720.0,0.9997
721.0,1.066
722.0,1.178
723.0,1.119
724.0,1.032
725.0,1.024
726.0,1.066
727.0,1.069
728.0,1.024
729.0,1.041
730.0,1.099
731.0,1.059
732.0,1.11
733.0,1.154
734.0,1.176
735.0,1.154
736.0,1.152
737.0,1.157
738.0,1.162
739.0,1.139
740.0,1.165
741.0,1.151
742.0,1.149
743.0,1.178
744.0,1.173
745.0,1.172
746.0,1.178
747.0,1.18
748.0,1.177
749.0,1.164
750.0,1.163
751.0,1.151
752.0,1.156
753.0,1.162
754.0,1.164
755.0,1.158
756.0,1.157
757.0,1.159
758.0,1.145
759.0,1.129
760.0,0.3795
761.0,0.2561
762.0,0.7442
763.0,0.4909
764.0,0.6282
765.0,0.745
766.0,0.8307
767.0,0.9701
768.0,1.061
769.0,1.07
770.0,1.092
771.0,1.095
772.0,1.095
773.0,1.102
774.0,1.096
775.0,1.088
776.0,1.101
777.0,1.086
778.0,1.08
779.0,1.081
780.0,1.074
781.0,1.075
782.0,1.082
783.0,1.063
784.0,1.068
785.0,1.061
786.0,1.073
787.0,1.06
788.0,1.049
789.0,1.05
790.0,1.031
791.0,1.031
792.0,1.023
793.0,1.007
794.0,1.015
795.0,1.034
796.0,1.015
797.0,1.016
798.0,1.035
799.0,1.03
800.0,1.015
801.0,1.015
802.0,1.011
803.0,1.005
804.0,1.005
805.0,0.9987
806.0,1.021
807.0,1.01
808.0,1.01
809.0,0.9957
810.0,0.9907
811.0,0.9971
812.0,0.9774
813.0,0.963
814.0,0.8777
815.0,0.8716
816.0,0.8167
817.0,0.8273
818.0,0.8031
819.0,0.8705
820.0,0.8308
821.0,0.9346
822.0,0.9141
823.0,0.6822
824.0,0.8993
825.0,0.9208
826.0,0.8966
827.0,0.9343
828.0,0.825
829.0,0.8889
830.0,0.8809
831.0,0.8825
832.0,0.8616
833.0,0.8988
834.0,0.8779
835.0,0.9415
836.0,0.9152
837.0,0.9431
838.0,0.9197
839.0,0.9277
840.0,0.9464
841.0,0.9357
842.0,0.9337
843.0,0.9291
844.0,0.9184
845.0,0.9462
846.0,0.9415
847.0,0.9227
848.0,0.9188
849.0,0.8927
850.0,0.855
851.0,0.9072
852.0,0.9
853.0,0.8648
854.0,0.748
855.0,0.8199
856.0,0.8968
857.0,0.9156
858.0,0.9094
859.0,0.9094
860.0,0.9104
861.0,0.9056
862.0,0.9196
863.0,0.9413
864.0,0.8941
865.0,0.8862
866.0,0.7968
867.0,0.8315
868.0,0.9048
869.0,0.8859
870.0,0.9111
871.0,0.8987
872.0,0.8955
873.0,0.8936
874.0,0.883
875.0,0.8652
876.0,0.8743
877.0,0.883
878.0,0.8929
879.0,0.8791
880.0,0.8602
881.0,0.8482
882.0,0.8668
883.0,0.8687
884.0,0.8651
885.0,0.8716
886.0,0.8338
887.0,0.8403
888.0,0.8543
889.0,0.8611
890.0,0.8573
891.0,0.8541
892.0,0.8336
893.0,0.8133
894.0,0.7949
895.0,0.7645
896.0,0.7277
897.0,0.6449
898.0,0.6917
899.0,0.5516
900.0,0.6967
901.0,0.5762
902.0,0.6438
903.0,0.6601
904.0,0.789
905.0,0.7682
906.0,0.7242
907.0,0.6172
908.0,0.6259
909.0,0.6633
910.0,0.6118
911.0,0.6376
912.0,0.6598
913.0,0.622
914.0,0.6126
915.0,0.6597
916.0,0.5684
917.0,0.691
918.0,0.5829
919.0,0.6979
920.0,0.6937
921.0,0.7171
922.0,0.6592
923.0,0.6921
924.0,0.6757
925.0,0.6621
926.0,0.6686
927.0,0.7312
928.0,0.5861
929.0,0.5486
930.0,0.4545
931.0,0.4261
932.0,0.3301
933.0,0.2825
934.0,0.1848
935.0,0.2773
936.0,0.1916
937.0,0.1976
938.0,0.235
939.0,0.413
940.0,0.4808
941.0,0.3851
942.0,0.4307
943.0,0.3014
944.0,0.3024
945.0,0.3936
946.0,0.2251
947.0,0.4012
948.0,0.2999
949.0,0.5117
950.0,0.1837
951.0,0.4998
952.0,0.3023
953.0,0.3684
954.0,0.4278
955.0,0.3697
956.0,0.3511
957.0,0.3063
958.0,0.4614
959.0,0.3911
960.0,0.4369
961.0,0.4721
962.0,0.4497
963.0,0.502
964.0,0.4658
965.0,0.4977
966.0,0.5021
967.0,0.5012
968.0,0.6191
969.0,0.6489
970.0,0.6043
971.0,0.6687
972.0,0.6441
973.0,0.5837
974.0,0.5581
975.0,0.5698
976.0,0.5528
977.0,0.6059
978.0,0.5853
979.0,0.6051
980.0,0.5745
981.0,0.6637
982.0,0.6426
983.0,0.622
984.0,0.6751
985.0,0.6398
986.0,0.6818
987.0,0.6736
988.0,0.6726
989.0,0.6765
990.0,0.6678
991.0,0.6792
992.0,0.6825
993.0,0.6726
994.0,0.6817
995.0,0.6801
996.0,0.6779
997.0,0.6785
998.0,0.6756
999.0,0.6729
1000.0,0.6695
1001.0,0.6764
1002.0,0.6631
1003.0,0.6648
1004.0,0.6499
1005.0,0.6242
1006.0,0.6495
1007.0,0.6628
1008.0,0.6602
1009.0,0.6577
1010.0,0.6555
1011.0,0.6593
1012.0,0.6546
1013.0,0.6574
1014.0,0.6528
1015.0,0.6486
1016.0,0.6458
1017.0,0.6476
1018.0,0.6446
1019.0,0.6328
1020.0,0.6415
1021.0,0.6403
1022.0,0.636
1023.0,0.6429
1024.0,0.6366
1025.0,0.6418
1026.0,0.6395
1027.0,0.6379
1028.0,0.6368
1029.0,0.6295
1030.0,0.633
1031.0,0.6308
1032.0,0.6287
1033.0,0.6193
1034.0,0.6192
1035.0,0.6212
1036.0,0.6246
1037.0,0.6144
1038.0,0.6172
1039.0,0.617
1040.0,0.6145
1041.0,0.6171
1042.0,0.6128
1043.0,0.611
1044.0,0.6133
1045.0,0.6051
1046.0,0.5985
1047.0,0.604
1048.0,0.6075
1049.0,0.6055
1050.0,0.6028
1051.0,0.6022
1052.0,0.5999
1053.0,0.5954
1054.0,0.597
1055.0,0.5976
1056.0,0.5958
1057.0,0.5942
1058.0,0.5799
1059.0,0.5808
1060.0,0.5801
1061.0,0.5796
1062.0,0.583
1063.0,0.5775
1064.0,0.5842
1065.0,0.5807
1066.0,0.5687
1067.0,0.5763
1068.0,0.5642
1069.0,0.5464
1070.0,0.5655
1071.0,0.5724
1072.0,0.5672
1073.0,0.5588
1074.0,0.5712
1075.0,0.5482
1076.0,0.571
1077.0,0.5641
1078.0,0.5545
1079.0,0.561
1080.0,0.5555
1081.0,0.5402
1082.0,0.5441
1083.0,0.5446
1084.0,0.5407
1085.0,0.5561
1086.0,0.5172
1087.0,0.5264
1088.0,0.5452
1089.0,0.5338
1090.0,0.5262
1091.0,0.5449
1092.0,0.5422
1093.0,0.4772
1094.0,0.4982
1095.0,0.494
1096.0,0.4784
1097.0,0.5294
1098.0,0.4725
1099.0,0.4901
1100.0,0.4641
1101.0,0.4673
1102.0,0.451
1103.0,0.4502
1104.0,0.4503
1105.0,0.4806
1106.0,0.3984
1107.0,0.4625
1108.0,0.4108
1109.0,0.4081
1110.0,0.4605
1111.0,0.3385
1112.0,0.4034
1113.0,0.2849
1114.0,0.3143
1115.0,0.2615
1116.0,0.2269
1117.0,0.1057
1118.0,0.2392
1119.0,0.1356
1120.0,0.1702
1121.0,0.2147
1122.0,0.1053
1123.0,0.1535
1124.0,0.1298
1125.0,0.1652
1126.0,0.07286
1127.0,0.185
1128.0,0.1269
1129.0,0.1316
1130.0,0.09532
1131.0,0.3138
1132.0,0.2533
1133.0,0.1797
1134.0,0.06001
1135.0,0.02208
1136.0,0.1569
1137.0,0.3128
1138.0,0.2258
1139.0,0.3024
1140.0,0.2658
1141.0,0.2146
1142.0,0.2391
1143.0,0.3252
1144.0,0.1327
1145.0,0.1726
1146.0,0.1863
1147.0,0.08213
1148.0,0.2817
1149.0,0.2361
1150.0,0.1427
1151.0,0.2243
1152.0,0.2632
1153.0,0.2472
1154.0,0.1719
1155.0,0.3158
1156.0,0.2908
1157.0,0.3178
1158.0,0.3136
1159.0,0.3294
1160.0,0.2931
1161.0,0.3414
1162.0,0.3444
1163.0,0.4336
1164.0,0.3837
1165.0,0.3721
1166.0,0.3631
1167.0,0.3893
1168.0,0.3955
1169.0,0.4007
1170.0,0.4268
1171.0,0.4178
1172.0,0.4206
1173.0,0.4258
1174.0,0.3297
1175.0,0.4127
1176.0,0.4424
1177.0,0.4318
1178.0,0.3438
1179.0,0.4454
1180.0,0.4104
1181.0,0.4218
1182.0,0.3122
1183.0,0.4124
1184.0,0.3935
1185.0,0.3854
1186.0,0.4374
1187.0,0.4225
1188.0,0.3187
1189.0,0.3952
1190.0,0.4276
1191.0,0.4156
1192.0,0.4324
1193.0,0.418
1194.0,0.4283
1195.0,0.4118
1196.0,0.4012
1197.0,0.4245
1198.0,0.3944
1199.0,0.3515
1200.0,0.4133
1201.0,0.404
1202.0,0.3989
1203.0,0.3952
1204.0,0.3554
1205.0,0.4034
1206.0,0.4363
1207.0,0.3992
1208.0,0.3882
1209.0,0.395
1210.0,0.4078
1211.0,0.3946
1212.0,0.396
1213.0,0.4252
1214.0,0.4022
1215.0,0.3963
1216.0,0.4236
1217.0,0.4155
1218.0,0.4204
1219.0,0.4166
1220.0,0.4205
1221.0,0.423
1222.0,0.414
1223.0,0.4113
1224.0,0.4107
1225.0,0.4203
1226.0,0.4213
1227.0,0.3964
1228.0,0.4219
1229.0,0.4213
1230.0,0.4156
1231.0,0.4226
1232.0,0.4203
1233.0,0.4117
1234.0,0.421
1235.0,0.4192
1236.0,0.4216
1237.0,0.418
1238.0,0.4202
1239.0,0.4148
1240.0,0.4161
1241.0,0.4156
1242.0,0.4134
1243.0,0.4099
1244.0,0.4133
1245.0,0.4148
1246.0,0.4123
1247.0,0.4111
1248.0,0.4116
1249.0,0.4122
1250.0,0.4101
1251.0,0.4058
1252.0,0.4047
1253.0,0.4035
1254.0,0.401
1255.0,0.4048
1256.0,0.3972
1257.0,0.3958
1258.0,0.4002
1259.0,0.3916
1260.0,0.3929
1261.0,0.3784
1262.0,0.371
1263.0,0.372
1264.0,0.3528
1265.0,0.3694
1266.0,0.361
1267.0,0.3635
1268.0,0.3509
1269.0,0.2625
1270.0,0.3637
1271.0,0.3762
1272.0,0.3765
1273.0,0.3734
1274.0,0.3735
1275.0,0.3774
1276.0,0.3796
1277.0,0.3805
1278.0,0.3847
1279.0,0.3815
1280.0,0.3765
1281.0,0.3579
1282.0,0.3425
1283.0,0.3694
1284.0,0.3787
1285.0,0.3808
1286.0,0.3847
1287.0,0.3811
1288.0,0.3804
1289.0,0.373
1290.0,0.3767
1291.0,0.3811
1292.0,0.3669
1293.0,0.3759
1294.0,0.3738
1295.0,0.374
1296.0,0.3629
1297.0,0.3481
1298.0,0.3654
1299.0,0.3756
1300.0,0.3344
1301.0,0.3411
1302.0,0.3638
1303.0,0.3282
1304.0,0.2958
1305.0,0.3578
1306.0,0.3585
1307.0,0.2968
1308.0,0.3264
1309.0,0.3568
1310.0,0.2918
1311.0,0.3164
1312.0,0.3104
1313.0,0.3067
1314.0,0.2805
1315.0,0.2802
1316.0,0.3139
1317.0,0.2992
1318.0,0.3186
1319.0,0.2684
1320.0,0.2559
1321.0,0.2912
1322.0,0.2966
1323.0,0.2397
1324.0,0.2632
1325.0,0.3101
1326.0,0.2766
1327.0,0.2664
1328.0,0.2351
1329.0,0.1906
1330.0,0.2404
1331.0,0.1637
1332.0,0.1625
1333.0,0.2204
1334.0,0.1808
1335.0,0.2382
1336.0,0.1972
1337.0,0.1806
1338.0,0.1939
1339.0,0.191
1340.0,0.1815
1341.0,0.1869
1342.0,0.1958
1343.0,0.1557
1344.0,0.09377
1345.0,0.1308
1346.0,0.08257
1347.0,0.08671
1348.0,0.01066
1349.0,0.03127
1350.0,0.02825
1351.0,0.01196
1352.0,0.005437
1353.0,0.0005641
1354.0,0.001295
1355.0,3.948e-05
1356.0,0.0002958
1357.0,0.0004361
1358.0,4.436e-05
1359.0,1.413e-05
1360.0,2.832e-05
1361.0,2.544e-07
1362.0,1.934e-09
1363.0,4.447e-05
1364.0,2.193e-05
1365.0,1.888e-09
1366.0,0.0001491
1367.0,5.855e-05
1368.0,1.207e-10
1369.0,8.99e-06
1370.0,6.502e-06
1371.0,6.514e-07
1372.0,3.306e-05
1373.0,0.0003293
1374.0,0.0009691
1375.0,0.001661
1376.0,0.001144
1377.0,0.0005918
1378.0,0.00431
1379.0,0.0002608
1380.0,0.0004716
1381.0,1.801e-05
1382.0,3.306e-05
1383.0,8.159e-07
1384.0,1.162e-05
1385.0,2.098e-05
1386.0,3.77e-05
1387.0,0.001209
1388.0,2.996e-05
1389.0,0.002636
1390.0,0.002216
1391.0,0.001702
1392.0,0.000143
1393.0,0.0005724
1394.0,0.0005638
1395.0,8.166e-06
1396.0,2.83e-07
1397.0,0.0002775
1398.0,0.004928
1399.0,0.003191
1400.0,2.019e-07
1401.0,4.178e-07
1402.0,0.005134
1403.0,0.007039
1404.0,0.002264
1405.0,5.582e-06
1406.0,0.006736
1407.0,0.0006021
1408.0,0.005422
1409.0,0.00251
1410.0,0.001776
1411.0,0.006109
1412.0,0.007066
1413.0,0.0423
1414.0,0.001363
1415.0,0.0007777
1416.0,0.05445
1417.0,0.02302
1418.0,0.02572
1419.0,0.004418
1420.0,0.01611
1421.0,0.01848
1422.0,0.06859
1423.0,0.01538
1424.0,0.02716
1425.0,0.04138
1426.0,0.04211
1427.0,0.06553
1428.0,0.01041
1429.0,0.05379
1430.0,0.08017
1431.0,0.08515
1432.0,0.008456
1433.0,0.05864
1434.0,0.03217
1435.0,0.03977
1436.0,0.06389
1437.0,0.04948
1438.0,0.0246
1439.0,0.08111
1440.0,0.06195
1441.0,0.05287
1442.0,0.05661
1443.0,0.06264
1444.0,0.08408
1445.0,0.07202
1446.0,0.03443
1447.0,0.05477
1448.0,0.136
1449.0,0.1248
1450.0,0.04063
1451.0,0.01842
1452.0,0.08118
1453.0,0.1023
1454.0,0.1541
1455.0,0.08093
1456.0,0.1122
1457.0,0.137
1458.0,0.1494
1459.0,0.1784
1460.0,0.1
1461.0,0.1092
1462.0,0.1498
1463.0,0.05656
1464.0,0.1675
1465.0,0.103
1466.0,0.08479
1467.0,0.05163
1468.0,0.09625
1469.0,0.1141
1470.0,0.06732
1471.0,0.0273
1472.0,0.06486
1473.0,0.08773
1474.0,0.1136
1475.0,0.1943
1476.0,0.08445
1477.0,0.08751
1478.0,0.07605
1479.0,0.1356
1480.0,0.07569
1481.0,0.1312
1482.0,0.07069
1483.0,0.1643
1484.0,0.1491
1485.0,0.1387
1486.0,0.1382
1487.0,0.07446
1488.0,0.112
1489.0,0.1972
1490.0,0.1807
1491.0,0.197
1492.0,0.1768
1493.0,0.1899
1494.0,0.2053
1495.0,0.1851
1496.0,0.1753
1497.0,0.2204
1498.0,0.1902
1499.0,0.2168
1500.0,0.239
1501.0,0.2505
1502.0,0.2144
1503.0,0.1912
1504.0,0.1609
1505.0,0.1855
1506.0,0.2462
1507.0,0.2407
1508.0,0.2296
1509.0,0.1898
1510.0,0.2543
1511.0,0.2491
1512.0,0.2445
1513.0,0.2321
1514.0,0.2211
1515.0,0.2496
1516.0,0.2411
1517.0,0.2389
1518.0,0.2378
1519.0,0.2349
1520.0,0.2468
1521.0,0.2551
1522.0,0.2477
1523.0,0.2584
1524.0,0.2537
1525.0,0.2467
1526.0,0.2497
1527.0,0.2476
1528.0,0.2578
1529.0,0.2474
1530.0,0.2442
1531.0,0.2507
1532.0,0.2563
1533.0,0.2554
1534.0,0.2518
1535.0,0.2522
1536.0,0.2556
1537.0,0.2514
1538.0,0.252
1539.0,0.2488
1540.0,0.2483
1541.0,0.2506
1542.0,0.2494
1543.0,0.2527
1544.0,0.2511
1545.0,0.2542
1546.0,0.2512
1547.0,0.2468
1548.0,0.2467
1549.0,0.2484
1550.0,0.2469
1551.0,0.249
1552.0,0.248
1553.0,0.2453
1554.0,0.2435
1555.0,0.2439
1556.0,0.2439
1557.0,0.2467
1558.0,0.2453
1559.0,0.2438
1560.0,0.2456
1561.0,0.2472
1562.0,0.2446
1563.0,0.2424
1564.0,0.2436
1565.0,0.2436
1566.0,0.2406
1567.0,0.2408
1568.0,0.2385
1569.0,0.2395
1570.0,0.2417
1571.0,0.2435
1572.0,0.2419
1573.0,0.2404
1574.0,0.2321
1575.0,0.2295
1576.0,0.2266
1577.0,0.2211
1578.0,0.2324
1579.0,0.2352
1580.0,0.2368
1581.0,0.2333
1582.0,0.2283
1583.0,0.2296
1584.0,0.2325
1585.0,0.2347
1586.0,0.2323
1587.0,0.2284
1588.0,0.2209
1589.0,0.214
1590.0,0.2191
1591.0,0.2243
1592.0,0.2316
1593.0,0.2345
1594.0,0.2346
1595.0,0.2312
1596.0,0.2246
1597.0,0.2308
1598.0,0.2331
1599.0,0.2305
1600.0,0.2287
1601.0,0.2258
1602.0,0.2269
1603.0,0.2285
1604.0,0.2268
1605.0,0.2266
1606.0,0.2241
1607.0,0.2261
1608.0,0.2264
1609.0,0.2201
1610.0,0.2155
1611.0,0.2194
1612.0,0.2216
1613.0,0.2225
1614.0,0.2222
1615.0,0.2171
1616.0,0.2138
1617.0,0.2183
1618.0,0.2217
1619.0,0.2182
1620.0,0.2129
1621.0,0.2155
1622.0,0.2189
1623.0,0.2221
1624.0,0.2198
1625.0,0.2189
1626.0,0.2196
1627.0,0.2211
1628.0,0.2208
1629.0,0.2186
1630.0,0.2175
1631.0,0.2169
1632.0,0.2161
1633.0,0.2108
1634.0,0.214
1635.0,0.2128
1636.0,0.2099
1637.0,0.207
1638.0,0.1979
1639.0,0.2027
1640.0,0.1979
1641.0,0.2016
1642.0,0.2048
1643.0,0.1987
1644.0,0.2045
1645.0,0.2019
1646.0,0.1999
1647.0,0.2079
1648.0,0.1989
1649.0,0.204
1650.0,0.2051
1651.0,0.1963
1652.0,0.2042
1653.0,0.2053
1654.0,0.1988
1655.0,0.2053
1656.0,0.2038
1657.0,0.2044
1658.0,0.2056
1659.0,0.2045
1660.0,0.2062
1661.0,0.2056
1662.0,0.2016
1663.0,0.2039
1664.0,0.2027
1665.0,0.1954
1666.0,0.1734
1667.0,0.1936
1668.0,0.1969
1669.0,0.1988
1670.0,0.2012
1671.0,0.1962
1672.0,0.1932
1673.0,0.1974
1674.0,0.1948
1675.0,0.1914
1676.0,0.1923
1677.0,0.1928
1678.0,0.1889
1679.0,0.1898
1680.0,0.1825
1681.0,0.1786
1682.0,0.1863
1683.0,0.1904
1684.0,0.1833
1685.0,0.1926
1686.0,0.1921
1687.0,0.1878
1688.0,0.1914
1689.0,0.1893
1690.0,0.1898
1691.0,0.1799
1692.0,0.1899
1693.0,0.193
1694.0,0.1885
1695.0,0.1915
1696.0,0.1911
1697.0,0.1718
1698.0,0.19
1699.0,0.1877
1700.0,0.184
1702.0,0.1855
1705.0,0.1821
1710.0,0.1743
1715.0,0.1744
1720.0,0.172
1725.0,0.1642
1730.0,0.1618
1735.0,0.1515
1740.0,0.1541
1745.0,0.1465
1750.0,0.1549
1755.0,0.145
1760.0,0.1501
1765.0,0.1277
1770.0,0.1364
1775.0,0.115
1780.0,0.1018
1785.0,0.08209
1790.0,0.09339
1795.0,0.05704
1800.0,0.03807
1805.0,0.02235
1810.0,0.01497
1815.0,0.00721
1820.0,0.002631
1825.0,0.003378
1830.0,4.3e-05
1835.0,3.754e-05
1840.0,9.826e-07
1845.0,7.006e-05
1850.0,3.672e-05
1855.0,3.946e-06
1860.0,6.994e-05
1865.0,0.0001207
1870.0,1.639e-08
1875.0,2.569e-08
1880.0,0.0003737
1885.0,0.0002353
1890.0,0.0009829
1895.0,0.0005755
1900.0,9.412e-06
1905.0,5.841e-06
1910.0,0.0001561
1915.0,0.0001078
1920.0,0.001601
1925.0,0.002551
1930.0,0.001613
1935.0,0.007213
1940.0,0.005945
1945.0,0.01781
1950.0,0.02975
1955.0,0.0292
1960.0,0.04154
1965.0,0.05519
1970.0,0.07101
1975.0,0.07809
1980.0,0.07756
1985.0,0.08165
1990.0,0.08403
1995.0,0.08696
2000.0,0.0904
2005.0,0.07992
2010.0,0.1035
2015.0,0.08793
2020.0,0.09191
2025.0,0.09701
2030.0,0.0916
2035.0,0.09648
2040.0,0.09375
2045.0,0.09591
2050.0,0.09626
2055.0,0.09355
2060.0,0.0911
2065.0,0.09192
2070.0,0.09119
2075.0,0.09233
2080.0,0.09022
2085.0,0.08963
2090.0,0.08997
2095.0,0.08774
2100.0,0.0839
2105.0,0.08821
2110.0,0.08549
2115.0,0.08653
2120.0,0.08266
2125.0,0.08317
2130.0,0.08366
2135.0,0.08379
2140.0,0.08413
2145.0,0.08331
2150.0,0.07984
2155.0,0.07961
2160.0,0.07855
2165.0,0.07225
2170.0,0.07607
2175.0,0.07529
2180.0,0.07631
2185.0,0.07057
2190.0,0.07422
2195.0,0.07375
2200.0,0.06791
2205.0,0.06952
2210.0,0.07319
2215.0,0.07105
2220.0,0.07196
2225.0,0.07021
2230.0,0.0704
2235.0,0.0691
2240.0,0.0683
2245.0,0.06654
2250.0,0.06726
2255.0,0.06422
2260.0,0.0635
2265.0,0.06431
2270.0,0.06187
2275.0,0.06111
2280.0,0.06246
2285.0,0.05988
2290.0,0.05977
2295.0,0.05827
2300.0,0.05641
2305.0,0.05663
2310.0,0.05978
2315.0,0.05551
2320.0,0.05056
2325.0,0.05373
2330.0,0.05415
2335.0,0.05481
2340.0,0.04578
2345.0,0.05001
2350.0,0.04154
2355.0,0.04666
2360.0,0.04865
2365.0,0.04762
2370.0,0.03296
2375.0,0.04368
2380.0,0.04176
2385.0,0.03241
2390.0,0.03682
2395.0,0.03987
2400.0,0.04271
2405.0,0.03402
2410.0,0.03435
2415.0,0.0288
2420.0,0.02754
2425.0,0.03363
2430.0,0.04339
2435.0,0.01684
2440.0,0.04201
2445.0,0.02269
2450.0,0.01592
2455.0,0.02639
2460.0,0.0341
2465.0,0.02615
2470.0,0.01963
2475.0,0.01956
2480.0,0.01079
2485.0,0.008294
2490.0,0.005872
2495.0,0.005096
2500.0,0.01048
2505.0,0.002636
2510.0,0.00377
2515.0,0.001124
2520.0,0.001185
2525.0,0.0001462
2530.0,9.078e-06
2535.0,3.672e-06
2540.0,6.321e-06
2545.0,3.632e-09
2550.0,3.661e-11
2555.0,6.139e-08
2560.0,2.025e-09
2565.0,5.542e-12
2570.0,5.39e-15
2575.0,5.002e-22
2580.0,1.728e-17
2585.0,3.943e-27
2590.0,2.967e-24
2595.0,9.924e-28
2600.0,5.927e-22
2605.0,1.716e-28
2610.0,1.061e-26
2615.0,9.196e-30
2620.0,1.371e-23
2625.0,7.788999999999999e-22
2630.0,2.2460000000000002e-35
2635.0,3.819e-13
2640.0,1.947e-13
2645.0,4.902e-15
2650.0,1.648e-15
2655.0,1.039e-21
2660.0,2.136e-20
2665.0,0.0
2670.0,2.803e-44
2675.0,0.0
2680.0,1.733e-19
2685.0,3.395e-20
2690.0,7.549e-19
2695.0,9.21e-22
2700.0,9.173e-18
2705.0,1.07e-15
2710.0,6.932e-21
2715.0,1.176e-17
2720.0,4.7560000000000005e-34
2725.0,2.525e-17
2730.0,3.51e-14
2735.0,3.937e-16
2740.0,2.0300000000000002e-21
2745.0,4.614e-17
2750.0,2.698e-16
2755.0,7.882e-18
2760.0,9.228e-14
2765.0,9.497e-19
2770.0,1.547e-16
2775.0,6.871e-14
2780.0,1.24e-12
2785.0,9.272e-13
2790.0,3.929e-10
2795.0,2.704e-10
2800.0,2.395e-08
2805.0,4.768e-10
2810.0,6.003e-07
2815.0,1.963e-07
2820.0,6.704e-09
2825.0,9.941e-06
2830.0,7.54e-05
2835.0,2.093e-08
2840.0,4.758e-06
2845.0,0.0003243
2850.0,1.888e-05
2855.0,4.566e-06
2860.0,0.0001509
2865.0,0.0006757
2870.0,5.162e-05
2875.0,0.001166
2880.0,0.0006647
2885.0,0.001223
2890.0,0.0004815
2895.0,0.004443
2900.0,0.001556
2905.0,0.0003144
2910.0,0.004358
2915.0,0.002372
2920.0,0.004533
2925.0,0.001904
2930.0,0.008125
2935.0,0.008841
2940.0,0.002862
2945.0,0.002604
2950.0,0.007434
2955.0,0.003355
2960.0,0.006546
2965.0,0.00955
2970.0,0.0006887
2975.0,0.001608
2980.0,0.002456
2985.0,0.009185
2990.0,0.01217
2995.0,0.006015
3000.0,0.009699
3005.0,0.004279
3010.0,0.008547
3015.0,0.007525
3020.0,0.001314
3025.0,0.009216
3030.0,0.007672
3035.0,0.003545
3040.0,0.003063
3045.0,0.005858
3050.0,0.001744
3055.0,0.0006415
3060.0,0.007776
3065.0,0.004259
3070.0,0.002885
3075.0,0.007482
3080.0,0.004766
3085.0,0.002848
3090.0,0.003719
3095.0,0.001287
3100.0,0.005767
3105.0,0.001544
3110.0,0.001608
3115.0,0.00341
3120.0,0.01166
3125.0,0.004132
3130.0,0.006915
3135.0,0.01303
3140.0,0.004522
3145.0,0.004343
3150.0,0.00823
3155.0,0.006956
3160.0,0.01083
3165.0,0.01483
3170.0,0.01345
3175.0,0.01053
3180.0,0.01157
3185.0,0.0098
3190.0,0.005291
3195.0,0.004139
3200.0,0.0008885
3205.0,0.0007123
3210.0,0.0003583
3215.0,0.001075
3220.0,0.002653
3225.0,0.000417
3230.0,0.0007028
3235.0,0.00871
3240.0,0.005229
3245.0,0.001186
3250.0,0.003546
3255.0,0.01109
3260.0,0.001985
3265.0,0.003458
3270.0,0.001987
3275.0,0.007267
3280.0,0.003885
3285.0,0.01186
3290.0,0.009843
3295.0,0.001836
3300.0,0.002413
3305.0,0.005085
3310.0,0.00519
3315.0,8.4e-05
3320.0,0.0001871
3325.0,0.004863
3330.0,0.005399
3335.0,0.01012
3340.0,0.004357
3345.0,0.004581
3350.0,0.008962
3355.0,0.004827
3360.0,0.006295
3365.0,0.008032
3370.0,0.005185
3375.0,0.009337
3380.0,0.006385
3385.0,0.008396
3390.0,0.01063
3395.0,0.01018
3400.0,0.01251
3405.0,0.005629
3410.0,0.007891
3415.0,0.008264
3420.0,0.01301
3425.0,0.01059
3430.0,0.009522
3435.0,0.01169
3440.0,0.008978
3445.0,0.01152
3450.0,0.01142
3455.0,0.008995
3460.0,0.01238
3465.0,0.01029
3470.0,0.01209
3475.0,0.01113
3480.0,0.01134
3485.0,0.01194
3490.0,0.01068
3495.0,0.012
3500.0,0.01176
3505.0,0.01167
3510.0,0.01178
3515.0,0.01139
3520.0,0.01183
3525.0,0.01126
3530.0,0.01105
3535.0,0.009718
3540.0,0.009382
3545.0,0.009771
3550.0,0.01049
3555.0,0.009343
3560.0,0.01065
3565.0,0.01066
3570.0,0.008701
3575.0,0.009005
3580.0,0.01011
3585.0,0.009335
3590.0,0.009553
3595.0,0.009629
3600.0,0.01009
3605.0,0.01018
3610.0,0.009525
3615.0,0.009424
3620.0,0.01106
3625.0,0.01001
3630.0,0.009782
3635.0,0.01002
3640.0,0.01087
3645.0,0.01019
3650.0,0.009816
3655.0,0.0104
3660.0,0.01036
3665.0,0.009872
3670.0,0.008047
3675.0,0.005511
3680.0,0.008363
3685.0,0.009201
3690.0,0.009438
3695.0,0.009631
3700.0,0.01012
3705.0,0.01004
3710.0,0.009043
3715.0,0.008913
3720.0,0.009797
3725.0,0.009999
3730.0,0.00895
3735.0,0.008335
3740.0,0.008453
3745.0,0.00951
3750.0,0.008837
3755.0,0.00863
3760.0,0.008614
3765.0,0.008333
3770.0,0.008755
3775.0,0.008659
3780.0,0.009065
3785.0,0.008509
3790.0,0.007688
3795.0,0.008499
3800.0,0.009279
3805.0,0.008846
3810.0,0.008098
3815.0,0.007662
3820.0,0.009074
3825.0,0.008938
3830.0,0.009017
3835.0,0.007609
3840.0,0.008571
3845.0,0.008417
3850.0,0.008454
3855.0,0.008176
3860.0,0.00779
3865.0,0.00782
3870.0,0.007292
3875.0,0.006829
3880.0,0.006661
3885.0,0.006805
3890.0,0.006872
3895.0,0.007319
3900.0,0.007625
3905.0,0.007604
3910.0,0.007038
3915.0,0.006906
3920.0,0.006889
3925.0,0.0068
3930.0,0.00695
3935.0,0.007143
3940.0,0.0072
3945.0,0.00727
3950.0,0.007325
3955.0,0.007366
3960.0,0.007406
3965.0,0.007445
3970.0,0.007379
3975.0,0.007234
3980.0,0.007151
3985.0,0.007149
3990.0,0.00707
3995.0,0.006949
4000.0,0.006695
