interpolation:linear
wavelength,value
280.0,1.882e-23
280.5,6.615999999999999e-22
281.0,3.622e-21
281.5,1.228e-19
282.0,1.015e-18
282.5,3.945e-18
283.0,1.77e-17
283.5,3.303e-17
284.0,9.111e-16
284.5,3.174e-15
285.0,4.694e-16
285.5,2.746e-15
286.0,1.152e-14
286.5,5.581e-14
287.0,1.669e-13
287.5,6.754e-13
288.0,1.112e-10
288.5,6.218e-11
289.0,9.42e-11
289.5,2.173e-10
290.0,5.294e-10
290.5,9.964e-10
291.0,1.994e-09
291.5,5.383e-09
292.0,1.103e-08
292.5,1.413e-08
293.0,2.755e-08
293.5,6.063e-08
294.0,8.865e-08
294.5,1.756e-08
295.0,2.902e-08
295.5,5.075e-08
296.0,8.216e-08
296.5,9.8e-08
297.0,1.163e-07
297.5,2.646e-07
298.0,3.624e-07
298.5,3.284e-07
299.0,6.555e-07
299.5,9.189e-07
300.0,9.219e-07
300.5,1.217e-06
301.0,1.904e-06
301.5,2.667e-06
302.0,2.139e-06
302.5,1.68e-06
303.0,3.177e-06
303.5,4.114e-06
304.0,3.889e-06
304.5,5.979e-06
305.0,9.756e-06
305.5,1.192e-05
306.0,1.187e-05
306.5,1.557e-05
307.0,2.637e-05
307.5,4.07e-05
308.0,4.416e-05
308.5,5.672e-05
309.0,5.688e-05
309.5,5.629e-05
310.0,5.477e-05
310.5,8.789e-05
311.0,0.0001095
311.5,0.0001056
312.0,0.0001076
312.5,0.0001369
313.0,0.0001573
313.5,0.0001449
314.0,0.0002069
314.5,0.0002209
315.0,0.0003005
315.5,0.0002293
316.0,0.0002341
316.5,0.0003871
317.0,0.0004795
317.5,0.0004793
318.0,0.0004126
318.5,0.0006233
319.0,0.00082
319.5,0.0005674
320.0,0.0006694
320.5,0.00103
321.0,0.001116
321.5,0.001092
322.0,0.000943
322.5,0.0008293
323.0,0.0009471
323.5,0.002391
324.0,0.002909
324.5,0.002658
325.0,0.001223
325.5,0.001765
326.0,0.004137
326.5,0.004722
327.0,0.004486
327.5,0.004074
328.0,0.003031
328.5,0.003955
329.0,0.005639
329.5,0.006829
330.0,0.006539
330.5,0.004554
331.0,0.004441
331.5,0.004965
332.0,0.006328
332.5,0.006768
333.0,0.006454
333.5,0.005132
334.0,0.005144
334.5,0.006879
335.0,0.007022
335.5,0.008806
336.0,0.006093
336.5,0.006384
337.0,0.004929
337.5,0.005994
338.0,0.00659
338.5,0.008294
339.0,0.008281
339.5,0.007924
340.0,0.008568
340.5,0.007815
341.0,0.008227
341.5,0.007672
342.0,0.009209
342.5,0.008655
343.0,0.009432
343.5,0.008827
344.0,0.006038
344.5,0.006513
345.0,0.008779
345.5,0.009033
346.0,0.007718
346.5,0.00877
347.0,0.009342
347.5,0.007535
348.0,0.008677
348.5,0.008726
349.0,0.008118
349.5,0.008032
350.0,0.009947
350.5,0.01049
351.0,0.009331
351.5,0.00896
352.0,0.009703
352.5,0.007621
353.0,0.00964
353.5,0.01034
354.0,0.01076
354.5,0.01091
355.0,0.01086
355.5,0.009827
356.0,0.0103
356.5,0.008798
357.0,0.00727
357.5,0.008909
358.0,0.007069
358.5,0.006046
359.0,0.00845
359.5,0.01074
360.0,0.0114
360.5,0.009126
361.0,0.008334
361.5,0.009608
362.0,0.008317
362.5,0.01152
363.0,0.01035
363.5,0.009535
364.0,0.01167
364.5,0.009973
365.0,0.01016
365.5,0.01276
366.0,0.01352
366.5,0.01272
367.0,0.01239
367.5,0.01286
368.0,0.01126
368.5,0.01136
369.0,0.01227
369.5,0.01309
370.0,0.01396
370.5,0.01084
371.0,0.01159
371.5,0.01451
372.0,0.009632
372.5,0.01155
373.0,0.01176
373.5,0.007651
374.0,0.01112
374.5,0.009213
375.0,0.00896
375.5,0.01338
376.0,0.0111
376.5,0.0115
377.0,0.01219
377.5,0.01426
378.0,0.01547
378.5,0.01462
379.0,0.01207
379.5,0.01103
380.0,0.01147
380.5,0.0139
381.0,0.01393
381.5,0.01105
382.0,0.009815
382.5,0.00837
383.0,0.007751
383.5,0.007469
384.0,0.008242
384.5,0.01213
385.0,0.01203
385.5,0.01121
386.0,0.009602
386.5,0.01262
387.0,0.01049
387.5,0.01178
388.0,0.01088
388.5,0.01076
389.0,0.01162
389.5,0.01408
390.0,0.01413
390.5,0.01301
391.0,0.01532
391.5,0.01563
392.0,0.01317
392.5,0.01179
393.0,0.006565
393.5,0.004774
394.0,0.009717
394.5,0.01236
395.0,0.01508
395.5,0.01533
396.0,0.01329
396.5,0.007774
397.0,0.005837
397.5,0.01187
398.0,0.01663
398.5,0.0172
399.0,0.01863
399.5,0.01857
400.0,0.01929
401.0,0.01906
402.0,0.02011
403.0,0.01912
404.0,0.01883
405.0,0.01884
406.0,0.01854
407.0,0.01824
408.0,0.01894
409.0,0.02027
410.0,0.01772
411.0,0.0192
412.0,0.02064
413.0,0.02014
414.0,0.02039
415.0,0.02044
416.0,0.02079
417.0,0.02028
418.0,0.01991
419.0,0.02018
420.0,0.0201
421.0,0.02102
422.0,0.01997
423.0,0.01949
424.0,0.02059
425.0,0.02054
426.0,0.02001
427.0,0.01965
428.0,0.01916
429.0,0.01816
430.0,0.0159
431.0,0.01575
432.0,0.02031
433.0,0.02041
434.0,0.01896
435.0,0.01981
436.0,0.02232
437.0,0.02201
438.0,0.02001
439.0,0.02065
440.0,0.02127
441.0,0.02199
442.0,0.02354
443.0,0.02292
444.0,0.02344
445.0,0.02298
446.0,0.02197
447.0,0.02377
448.0,0.02412
449.0,0.02416
450.0,0.02479
451.0,0.02569
452.0,0.02476
453.0,0.0233
454.0,0.02433
455.0,0.02443
456.0,0.02496
457.0,0.02528
458.0,0.02432
459.0,0.02408
460.0,0.02404
461.0,0.02453
462.0,0.02471
463.0,0.02459
464.0,0.02427
465.0,0.02403
466.0,0.02429
467.0,0.02383
468.0,0.02404
469.0,0.02409
470.0,0.02328
471.0,0.02324
472.0,0.0245
473.0,0.02418
474.0,0.02419
475.0,0.02432
476.0,0.02347
477.0,0.0234
478.0,0.02389
479.0,0.02358
480.0,0.02345
481.0,0.02376
482.0,0.02382
483.0,0.02354
484.0,0.02312
485.0,0.02211
486.0,0.0194
487.0,0.02037
488.0,0.02233
489.0,0.02234
490.0,0.02343
491.0,0.02296
492.0,0.02164
493.0,0.02234
494.0,0.02255
495.0,0.02272
496.0,0.02279
497.0,0.02303
498.0,0.02181
499.0,0.02191
500.0,0.0211
501.0,0.02053
502.0,0.02005
503.0,0.0207
504.0,0.02005
505.0,0.02068
506.0,0.02134
507.0,0.02033
508.0,0.01974
509.0,0.02036
510.0,0.0203
511.0,0.02085
512.0,0.02105
513.0,0.01987
514.0,0.01967
515.0,0.0194
516.0,0.0193
517.0,0.0171
518.0,0.01793
519.0,0.01876
520.0,0.01938
521.0,0.01947
522.0,0.01938
523.0,0.01896
524.0,0.0195
525.0,0.01957
526.0,0.01856
527.0,0.01734
528.0,0.01819
529.0,0.01905
530.0,0.01866
531.0,0.01882
532.0,0.0181
533.0,0.01752
534.0,0.01802
535.0,0.01841
536.0,0.01858
537.0,0.01785
538.0,0.01814
539.0,0.01794
540.0,0.01714
541.0,0.01717
542.0,0.01762
543.0,0.01736
544.0,0.01758
545.0,0.01746
546.0,0.01748
547.0,0.01743
548.0,0.01718
549.0,0.0172
550.0,0.01736
551.0,0.01711
552.0,0.01718
553.0,0.01682
554.0,0.01717
555.0,0.01713
556.0,0.01683
557.0,0.01622
558.0,0.01599
559.0,0.01558
560.0,0.01566
561.0,0.01575
562.0,0.01552
563.0,0.01584
564.0,0.01532
565.0,0.01511
566.0,0.01481
567.0,0.01501
568.0,0.01478
569.0,0.01438
570.0,0.0143
571.0,0.01413
572.0,0.01441
573.0,0.01452
574.0,0.01443
575.0,0.01414
576.0,0.01401
577.0,0.01418
578.0,0.014
579.0,0.0141
580.0,0.01443
581.0,0.01457
582.0,0.01489
583.0,0.01497
584.0,0.01512
585.0,0.01477
586.0,0.01447
587.0,0.01477
588.0,0.01443
589.0,0.01256
590.0,0.01309
591.0,0.01383
592.0,0.0136
593.0,0.01386
594.0,0.01359
595.0,0.01326
596.0,0.01376
597.0,0.01347
598.0,0.0133
599.0,0.01336
600.0,0.01328
601.0,0.01313
602.0,0.01303
603.0,0.01325
604.0,0.01349
605.0,0.01346
606.0,0.01344
607.0,0.01363
608.0,0.01354
609.0,0.01363
610.0,0.0136
611.0,0.01374
612.0,0.01377
613.0,0.01366
614.0,0.01353
615.0,0.01388
616.0,0.01347
617.0,0.01349
618.0,0.01405
619.0,0.01394
620.0,0.01405
621.0,0.01409
622.0,0.01394
623.0,0.01374
624.0,0.01351
625.0,0.01348
626.0,0.01369
627.0,0.01382
628.0,0.01254
629.0,0.0133
630.0,0.01303
631.0,0.01348
632.0,0.01344
633.0,0.01391
634.0,0.01387
635.0,0.01417
636.0,0.01403
637.0,0.01435
638.0,0.01455
639.0,0.01445
640.0,0.01439
641.0,0.01443
642.0,0.01444
643.0,0.01471
644.0,0.01471
645.0,0.0147
646.0,0.01444
647.0,0.01409
648.0,0.01398
649.0,0.01381
650.0,0.01401
651.0,0.0146
652.0,0.01386
653.0,0.01459
654.0,0.01465
655.0,0.01371
656.0,0.01218
657.0,0.01274
658.0,0.01429
659.0,0.01464
660.0,0.01467
661.0,0.01481
662.0,0.01491
663.0,0.01467
664.0,0.01487
665.0,0.01488
666.0,0.01494
667.0,0.01497
668.0,0.01505
669.0,0.0153
670.0,0.01527
671.0,0.0153
672.0,0.0152
673.0,0.01547
674.0,0.01543
675.0,0.01532
676.0,0.01545
677.0,0.01532
678.0,0.01539
679.0,0.01516
680.0,0.01529
681.0,0.01518
682.0,0.01516
683.0,0.01511
684.0,0.015
685.0,0.01518
686.0,0.01502
687.0,0.00879
688.0,0.01025
689.0,0.01029
690.0,0.0108
691.0,0.01146
692.0,0.01213
693.0,0.01204
694.0,0.01211
695.0,0.01299
696.0,0.01307
697.0,0.01489
698.0,0.01415
699.0,0.01336
700.0,0.01317
701.0,0.01276
702.0,0.01294
703.0,0.01317
704.0,0.01349
705.0,0.01387
706.0,0.01384
707.0,0.01371
708.0,0.01458
709.0,0.0146
710.0,0.01419
711.0,0.01429
712.0,0.01448
713.0,0.01397
714.0,0.01399
715.0,0.01333
716.0,0.01314
717.0,0.01038
718.0,0.009872
719.0,0.009617
720.0,0.0095
721.0,0.01097
722.0,0.01206
723.0,0.01159
724.0,0.01081
725.0,0.01018
726.0,0.009935
727.0,0.01145
728.0,0.009512
729.0,0.01019
730.0,0.01034
731.0,0.01004
732.0,0.01088
733.0,0.0118
734.0,0.01233
735.0,0.01198
736.0,0.01171
737.0,0.01189
738.0,0.01256
739.0,0.01249
740.0,0.01309
741.0,0.01295
742.0,0.0133
743.0,0.01353
744.0,0.01343
745.0,0.01353
746.0,0.01357
747.0,0.01362
748.0,0.01359
749.0,0.01343
750.0,0.01342
751.0,0.01328
752.0,0.01334
753.0,0.01342
754.0,0.01343
755.0,0.01332
756.0,0.01334
757.0,0.01333
758.0,0.01311
759.0,0.01209
760.0,0.001755
761.0,0.0009372
762.0,0.005152
763.0,0.002625
764.0,0.003885
765.0,0.00511
766.0,0.006209
767.0,0.007809
768.0,0.009532
769.0,0.01016
770.0,0.0114
771.0,0.01208
772.0,0.01231
773.0,0.01243
774.0,0.01239
775.0,0.01231
776.0,0.01245
777.0,0.01227
778.0,0.01215
779.0,0.01215
780.0,0.01207
781.0,0.01208
782.0,0.01215
783.0,0.01195
784.0,0.01202
785.0,0.01196
786.0,0.01196
787.0,0.01151
788.0,0.0116
789.0,0.0109
790.0,0.01007
791.0,0.01053
792.0,0.01055
793.0,0.01032
794.0,0.0113
795.0,0.01089
796.0,0.01025
797.0,0.01122
798.0,0.01154
799.0,0.0109
800.0,0.01018
801.0,0.009699
802.0,0.01059
803.0,0.01005
804.0,0.0104
805.0,0.01052
806.0,0.01117
807.0,0.0102
808.0,0.01068
809.0,0.01009
810.0,0.009849
811.0,0.008869
812.0,0.008479
813.0,0.008216
814.0,0.006882
815.0,0.006657
816.0,0.007844
817.0,0.007964
818.0,0.007729
819.0,0.007585
820.0,0.008204
821.0,0.008439
822.0,0.007875
823.0,0.004843
824.0,0.007799
825.0,0.009583
826.0,0.007714
827.0,0.008572
828.0,0.006963
829.0,0.008599
830.0,0.008233
831.0,0.008172
832.0,0.008216
833.0,0.00768
834.0,0.007214
835.0,0.0087
836.0,0.008075
837.0,0.008623
838.0,0.008007
839.0,0.009386
840.0,0.009769
841.0,0.009438
842.0,0.009377
843.0,0.009396
844.0,0.008881
845.0,0.009714
846.0,0.009715
847.0,0.009663
848.0,0.009528
849.0,0.009025
850.0,0.008759
851.0,0.008909
852.0,0.008982
853.0,0.008859
854.0,0.007705
855.0,0.008349
856.0,0.009203
857.0,0.009417
858.0,0.009363
859.0,0.009463
860.0,0.009501
861.0,0.009456
862.0,0.009594
863.0,0.0098
864.0,0.00933
865.0,0.009256
866.0,0.008313
867.0,0.008671
868.0,0.00943
869.0,0.009239
870.0,0.009497
871.0,0.009343
872.0,0.009321
873.0,0.009293
874.0,0.009173
875.0,0.008948
876.0,0.009041
877.0,0.009098
878.0,0.009199
879.0,0.009042
880.0,0.008798
881.0,0.008664
882.0,0.008726
883.0,0.008765
884.0,0.008704
885.0,0.008608
886.0,0.007812
887.0,0.008168
888.0,0.008179
889.0,0.008671
890.0,0.007802
891.0,0.008633
892.0,0.007332
893.0,0.00692
894.0,0.005925
895.0,0.00513
896.0,0.005589
897.0,0.005484
898.0,0.006032
899.0,0.003807
900.0,0.004798
901.0,0.004153
902.0,0.003825
903.0,0.004979
904.0,0.006016
905.0,0.005392
906.0,0.005362
907.0,0.004975
908.0,0.005265
909.0,0.004504
910.0,0.003399
911.0,0.003722
912.0,0.005742
913.0,0.003529
914.0,0.005039
915.0,0.003426
916.0,0.004349
917.0,0.003849
918.0,0.003794
919.0,0.004172
920.0,0.004725
921.0,0.00451
922.0,0.003826
923.0,0.004497
924.0,0.003697
925.0,0.00368
926.0,0.003571
927.0,0.004065
928.0,0.002724
929.0,0.002437
930.0,0.001899
931.0,0.001793
932.0,0.001284
933.0,0.001037
934.0,0.0005633
935.0,0.001055
936.0,0.0006542
937.0,0.0006601
938.0,0.0008094
939.0,0.001686
940.0,0.002026
941.0,0.001515
942.0,0.00175
943.0,0.001143
944.0,0.001201
945.0,0.001539
946.0,0.0007769
947.0,0.001536
948.0,0.001126
949.0,0.00205
950.0,0.0005677
951.0,0.002011
952.0,0.001192
953.0,0.001391
954.0,0.001696
955.0,0.002009
956.0,0.00135
957.0,0.001198
958.0,0.001935
959.0,0.00153
960.0,0.001767
961.0,0.001982
962.0,0.001837
963.0,0.002259
964.0,0.002026
965.0,0.002148
966.0,0.002429
967.0,0.003032
968.0,0.004939
969.0,0.003177
970.0,0.004555
971.0,0.00375
972.0,0.004388
973.0,0.002992
974.0,0.002698
975.0,0.003729
976.0,0.004318
977.0,0.004316
978.0,0.003237
979.0,0.003986
980.0,0.004023
981.0,0.003924
982.0,0.003382
983.0,0.003348
984.0,0.004571
985.0,0.003326
986.0,0.005918
987.0,0.004364
988.0,0.004609
989.0,0.005887
990.0,0.004265
991.0,0.005689
992.0,0.006007
993.0,0.004831
994.0,0.006065
995.0,0.006191
996.0,0.006066
997.0,0.006036
998.0,0.005969
999.0,0.00599
1000.0,0.006052
1001.0,0.006065
1002.0,0.005327
1003.0,0.006006
1004.0,0.005533
1005.0,0.005452
1006.0,0.005597
1007.0,0.005821
1008.0,0.005557
1009.0,0.005244
1010.0,0.005214
1011.0,0.005653
1012.0,0.005453
1013.0,0.005765
1014.0,0.005733
1015.0,0.005725
1016.0,0.005621
1017.0,0.005566
1018.0,0.005636
1019.0,0.005121
1020.0,0.005609
1021.0,0.005618
1022.0,0.005511
1023.0,0.005396
1024.0,0.004862
1025.0,0.00559
1026.0,0.005395
1027.0,0.005576
1028.0,0.005351
1029.0,0.005298
1030.0,0.00538
1031.0,0.005446
1032.0,0.005322
1033.0,0.005293
1034.0,0.005258
1035.0,0.00528
1036.0,0.005223
1037.0,0.005175
1038.0,0.005169
1039.0,0.005125
1040.0,0.005092
1041.0,0.00506
1042.0,0.00502
1043.0,0.004974
1044.0,0.004956
1045.0,0.004856
1046.0,0.004769
1047.0,0.004773
1048.0,0.004757
1049.0,0.0047
1050.0,0.004634
1051.0,0.004577
1052.0,0.004511
1053.0,0.004417
1054.0,0.004367
1055.0,0.0043
1056.0,0.004209
1057.0,0.004144
1058.0,0.003987
1059.0,0.00392
1060.0,0.003887
1061.0,0.003841
1062.0,0.003849
1063.0,0.003717
1064.0,0.003776
1065.0,0.003619
1066.0,0.00363
1067.0,0.003683
1068.0,0.00353
1069.0,0.003436
1070.0,0.003605
1071.0,0.003813
1072.0,0.003551
1073.0,0.003693
1074.0,0.003916
1075.0,0.003082
1076.0,0.004008
1077.0,0.003458
1078.0,0.003147
1079.0,0.004053
1080.0,0.003402
1081.0,0.002906
1082.0,0.003483
1083.0,0.003706
1084.0,0.002975
1085.0,0.003489
1086.0,0.002968
1087.0,0.002837
1088.0,0.003614
1089.0,0.002827
1090.0,0.002846
1091.0,0.003284
1092.0,0.003537
1093.0,0.002192
1094.0,0.002957
1095.0,0.001991
1096.0,0.00184
1097.0,0.003615
1098.0,0.001776
1099.0,0.001752
1100.0,0.001584
1101.0,0.001608
1102.0,0.001475
1103.0,0.001336
1104.0,0.001463
1105.0,0.001601
1106.0,0.00101
1107.0,0.001471
1108.0,0.001067
1109.0,0.001155
1110.0,0.001282
1111.0,0.0008253
1112.0,0.001283
1113.0,0.0006504
1114.0,0.0007242
1115.0,0.0005955
1116.0,0.0004648
1117.0,0.0001673
1118.0,0.0005034
1119.0,0.0002465
1120.0,0.0003092
1121.0,0.0004105
1122.0,0.0001701
1123.0,0.0002767
1124.0,0.0002328
1125.0,0.0003033
1126.0,0.0001031
1127.0,0.0003401
1128.0,0.0002005
1129.0,0.0002124
1130.0,0.0001384
1131.0,0.0006421
1132.0,0.000501
1133.0,0.0003135
1134.0,7.814e-05
1135.0,2.928e-05
1136.0,0.0002579
1137.0,0.0006175
1138.0,0.000433
1139.0,0.0006493
1140.0,0.0005386
1141.0,0.0004075
1142.0,0.0004684
1143.0,0.0006652
1144.0,0.000229
1145.0,0.0002909
1146.0,0.0003126
1147.0,0.0001075
1148.0,0.0005664
1149.0,0.0004491
1150.0,0.0002418
1151.0,0.0004119
1152.0,0.0005073
1153.0,0.0004945
1154.0,0.0002743
1155.0,0.000644
1156.0,0.0005809
1157.0,0.000658
1158.0,0.00064
1159.0,0.0007032
1160.0,0.0006048
1161.0,0.0009207
1162.0,0.00152
1163.0,0.001174
1164.0,0.001452
1165.0,0.0008468
1166.0,0.001402
1167.0,0.001263
1168.0,0.001037
1169.0,0.001105
1170.0,0.001361
1171.0,0.001301
1172.0,0.002301
1173.0,0.001266
1174.0,0.0008638
1175.0,0.001571
1176.0,0.002712
1177.0,0.001643
1178.0,0.00116
1179.0,0.002481
1180.0,0.002927
1181.0,0.001399
1182.0,0.0008386
1183.0,0.001402
1184.0,0.002744
1185.0,0.001968
1186.0,0.001659
1187.0,0.001359
1188.0,0.001055
1189.0,0.001582
1190.0,0.001954
1191.0,0.001274
1192.0,0.001964
1193.0,0.002925
1194.0,0.001904
1195.0,0.001326
1196.0,0.001177
1197.0,0.001746
1198.0,0.001813
1199.0,0.001066
1200.0,0.001483
1201.0,0.001273
1202.0,0.001678
1203.0,0.001184
1204.0,0.002323
1205.0,0.002429
1206.0,0.002336
1207.0,0.001435
1208.0,0.00153
1209.0,0.001845
1210.0,0.002447
1211.0,0.001978
1212.0,0.001129
1213.0,0.001892
1214.0,0.001264
1215.0,0.001155
1216.0,0.002128
1217.0,0.001983
1218.0,0.002039
1219.0,0.001912
1220.0,0.002115
1221.0,0.002227
1222.0,0.002146
1223.0,0.002026
1224.0,0.001757
1225.0,0.001987
1226.0,0.002326
1227.0,0.001608
1228.0,0.002599
1229.0,0.002262
1230.0,0.002118
1231.0,0.002941
1232.0,0.00295
1233.0,0.001771
1234.0,0.003091
1235.0,0.002868
1236.0,0.003048
1237.0,0.00253
1238.0,0.00304
1239.0,0.00303
1240.0,0.00306
1241.0,0.002941
1242.0,0.00298
1243.0,0.002992
1244.0,0.002888
1245.0,0.002976
1246.0,0.002976
1247.0,0.002846
1248.0,0.002777
1249.0,0.002846
1250.0,0.002722
1251.0,0.002501
1252.0,0.00277
1253.0,0.002302
1254.0,0.002118
1255.0,0.002685
1256.0,0.001902
1257.0,0.001765
1258.0,0.00226
1259.0,0.001416
1260.0,0.001505
1261.0,0.0009498
1262.0,0.0007921
1263.0,0.0007962
1264.0,0.0006096
1265.0,0.0007812
1266.0,0.0006643
1267.0,0.0007325
1268.0,0.0006171
1269.0,0.0003474
1270.0,0.0006947
1271.0,0.0009699
1272.0,0.0009923
1273.0,0.000942
1274.0,0.0009995
1275.0,0.001077
1276.0,0.001223
1277.0,0.001366
1278.0,0.001661
1279.0,0.001646
1280.0,0.001848
1281.0,0.002004
1282.0,0.002045
1283.0,0.002138
1284.0,0.002392
1285.0,0.002193
1286.0,0.002438
1287.0,0.002541
1288.0,0.002322
1289.0,0.001436
1290.0,0.002468
1291.0,0.002609
1292.0,0.001196
1293.0,0.002229
1294.0,0.002017
1295.0,0.001425
1296.0,0.001121
1297.0,0.00096
1298.0,0.001358
1299.0,0.002008
1300.0,0.0008315
1301.0,0.0007782
1302.0,0.001343
1303.0,0.001799
1304.0,0.0005463
1305.0,0.001171
1306.0,0.0009192
1307.0,0.000841
1308.0,0.001007
1309.0,0.000884
1310.0,0.001172
1311.0,0.001523
1312.0,0.0007614
1313.0,0.0007493
1314.0,0.0004455
1315.0,0.0004385
1316.0,0.0011
1317.0,0.001863
1318.0,0.00157
1319.0,0.0008468
1320.0,0.0004636
1321.0,0.0007026
1322.0,0.0004471
1323.0,0.000321
1324.0,0.0007219
1325.0,0.0005806
1326.0,0.0005232
1327.0,0.0004434
1328.0,0.0003022
1329.0,0.0002206
1330.0,0.0002861
1331.0,0.0001743
1332.0,0.0001769
1333.0,0.0002458
1334.0,0.0002113
1335.0,0.0002861
1336.0,0.0002255
1337.0,0.0001996
1338.0,0.0002135
1339.0,0.0002125
1340.0,0.0002058
1341.0,0.0002
1342.0,0.0002095
1343.0,0.0001411
1344.0,8.429e-05
1345.0,0.0001213
1346.0,5.982e-05
1347.0,6.06e-05
1348.0,3.907e-06
1349.0,1.402e-05
1350.0,1.453e-05
1351.0,3.513e-06
1352.0,9.452e-07
1353.0,4.811e-08
1354.0,1.654e-07
1355.0,1.332e-09
1356.0,2.331e-08
1357.0,3.541e-08
1358.0,1.564e-09
1359.0,1.97e-10
1360.0,7.121e-10
1361.0,7.966e-13
1362.0,2.179e-15
1363.0,9.578e-10
1364.0,3.955e-10
1365.0,7.611e-16
1366.0,4.152e-09
1367.0,1.695e-09
1368.0,5.879e-18
1369.0,1.458e-10
1370.0,7.181e-11
1371.0,4.071e-12
1372.0,9.197e-10
1373.0,1.853e-08
1374.0,8.595e-08
1375.0,1.559e-07
1376.0,1.398e-07
1377.0,6.388e-08
1378.0,6.246e-07
1379.0,2.67e-08
1380.0,3.837e-08
1381.0,9.995e-10
1382.0,8.069e-10
1383.0,1.206e-11
1384.0,1.582e-10
1385.0,7.565e-10
1386.0,7.116e-10
1387.0,8.608e-08
1388.0,1.693e-09
1389.0,2.907e-07
1390.0,2.495e-07
1391.0,1.659e-07
1392.0,1.076e-08
1393.0,5.7e-08
1394.0,2.938e-08
1395.0,2.153e-10
1396.0,1.041e-12
1397.0,2.245e-08
1398.0,6.638e-07
1399.0,4.199e-07
1400.0,4.451e-13
1401.0,1.847e-12
1402.0,1.164e-06
1403.0,1.458e-06
1404.0,4.428e-07
1405.0,1.02e-10
1406.0,1.145e-06
1407.0,1.009e-07
1408.0,9.316e-07
1409.0,3.106e-07
1410.0,2.487e-07
1411.0,1.254e-06
1412.0,1.692e-06
1413.0,1.761e-05
1414.0,1.942e-07
1415.0,9.275e-08
1416.0,2.911e-05
1417.0,8.598e-06
1418.0,9.736e-06
1419.0,1.499e-06
1420.0,5.918e-06
1421.0,6.384e-06
1422.0,3.744e-05
1423.0,7.181e-06
1424.0,1.348e-05
1425.0,1.969e-05
1426.0,2.254e-05
1427.0,4.193e-05
1428.0,2.934e-06
1429.0,3.088e-05
1430.0,5.328e-05
1431.0,5.858e-05
1432.0,2.281e-06
1433.0,3.676e-05
1434.0,1.85e-05
1435.0,1.792e-05
1436.0,3.53e-05
1437.0,2.699e-05
1438.0,1.114e-05
1439.0,4.799e-05
1440.0,3.583e-05
1441.0,2.68e-05
1442.0,2.969e-05
1443.0,3.787e-05
1444.0,5.273e-05
1445.0,4.088e-05
1446.0,1.797e-05
1447.0,2.833e-05
1448.0,0.0001004
1449.0,8.623e-05
1450.0,2.088e-05
1451.0,8.22e-06
1452.0,5.077e-05
1453.0,6.691e-05
1454.0,0.0001177
1455.0,5.418e-05
1456.0,7.223e-05
1457.0,9.844e-05
1458.0,0.0001176
1459.0,0.0001384
1460.0,7.094e-05
1461.0,7.3e-05
1462.0,0.0001084
1463.0,3.417e-05
1464.0,0.0001294
1465.0,7.744e-05
1466.0,5.129e-05
1467.0,2.624e-05
1468.0,6.071e-05
1469.0,7.532e-05
1470.0,3.618e-05
1471.0,1.283e-05
1472.0,3.439e-05
1473.0,5.348e-05
1474.0,7.94e-05
1475.0,0.0001524
1476.0,5.32e-05
1477.0,5.313e-05
1478.0,4.963e-05
1479.0,9.674e-05
1480.0,4.551e-05
1481.0,9.158e-05
1482.0,4.45e-05
1483.0,0.0001191
1484.0,0.0001118
1485.0,9.842e-05
1486.0,9.625e-05
1487.0,4.302e-05
1488.0,7.697e-05
1489.0,0.000153
1490.0,0.000145
1491.0,0.0001711
1492.0,0.0001317
1493.0,0.0001467
1494.0,0.0001805
1495.0,0.0001602
1496.0,0.0001445
1497.0,0.0002988
1498.0,0.0002705
1499.0,0.0002001
1500.0,0.0004719
1501.0,0.0003838
1502.0,0.0005662
1503.0,0.0002721
1504.0,0.0001208
1505.0,0.0001877
1506.0,0.0005615
1507.0,0.0004987
1508.0,0.0007774
1509.0,0.0003998
1510.0,0.0006653
1511.0,0.0004241
1512.0,0.0007115
1513.0,0.0002957
1514.0,0.0002772
1515.0,0.0007854
1516.0,0.0007576
1517.0,0.0004497
1518.0,0.0006128
1519.0,0.0003948
1520.0,0.0005674
1521.0,0.001459
1522.0,0.0007759
1523.0,0.001458
1524.0,0.0009605
1525.0,0.0006081
1526.0,0.0009365
1527.0,0.0008246
1528.0,0.001257
1529.0,0.0009985
1530.0,0.0009534
1531.0,0.0009167
1532.0,0.001527
1533.0,0.001646
1534.0,0.001801
1535.0,0.001571
1536.0,0.001546
1537.0,0.001206
1538.0,0.001691
1539.0,0.001755
1540.0,0.001665
1541.0,0.001634
1542.0,0.001582
1543.0,0.001743
1544.0,0.001624
1545.0,0.001755
1546.0,0.001541
1547.0,0.00164
1548.0,0.00165
1549.0,0.001762
1550.0,0.00171
1551.0,0.001606
1552.0,0.001768
1553.0,0.001715
1554.0,0.001628
1555.0,0.001711
1556.0,0.001648
1557.0,0.001691
1558.0,0.001712
1559.0,0.001702
1560.0,0.001639
1561.0,0.001665
1562.0,0.00166
1563.0,0.001571
1564.0,0.001554
1565.0,0.001728
1566.0,0.001596
1567.0,0.001605
1568.0,0.001573
1569.0,0.001674
1570.0,0.001653
1571.0,0.001643
1572.0,0.001645
1573.0,0.001579
1574.0,0.001471
1575.0,0.001448
1576.0,0.001268
1577.0,0.00123
1578.0,0.001225
1579.0,0.00113
1580.0,0.001179
1581.0,0.001167
1582.0,0.001173
1583.0,0.001145
1584.0,0.001386
1585.0,0.001448
1586.0,0.001466
1587.0,0.001372
1588.0,0.001529
1589.0,0.001507
1590.0,0.00147
1591.0,0.001558
1592.0,0.001533
1593.0,0.001581
1594.0,0.001596
1595.0,0.001569
1596.0,0.001483
1597.0,0.001407
1598.0,0.001569
1599.0,0.001597
1600.0,0.001625
1601.0,0.001522
1602.0,0.001477
1603.0,0.001612
1604.0,0.001582
1605.0,0.001609
1606.0,0.001578
1607.0,0.001601
1608.0,0.001431
1609.0,0.001537
1610.0,0.001473
1611.0,0.001529
1612.0,0.001569
1613.0,0.001484
1614.0,0.001553
1615.0,0.001509
1616.0,0.00151
1617.0,0.001402
1618.0,0.001544
1619.0,0.0014
1620.0,0.0015
1621.0,0.001475
1622.0,0.001482
1623.0,0.001521
1624.0,0.001436
1625.0,0.001392
1626.0,0.001411
1627.0,0.001462
1628.0,0.00139
1629.0,0.001443
1630.0,0.001397
1631.0,0.001248
1632.0,0.001371
1633.0,0.0009958
1634.0,0.001361
1635.0,0.0009866
1636.0,0.001202
1637.0,0.001287
1638.0,0.0007246
1639.0,0.001266
1640.0,0.0007105
1641.0,0.001152
1642.0,0.001308
1643.0,0.0005222
1644.0,0.001405
1645.0,0.0008253
1646.0,0.0005089
1647.0,0.001375
1648.0,0.0005089
1649.0,0.001127
1650.0,0.001188
1651.0,0.0004088
1652.0,0.001019
1653.0,0.001342
1654.0,0.0005652
1655.0,0.001203
1656.0,0.0008784
1657.0,0.001022
1658.0,0.001342
1659.0,0.001205
1660.0,0.001175
1661.0,0.001349
1662.0,0.0009955
1663.0,0.001288
1664.0,0.001309
1665.0,0.0005205
1666.0,0.000107
1667.0,0.0005467
1668.0,0.001065
1669.0,0.001096
1670.0,0.001286
1671.0,0.001085
1672.0,0.001212
1673.0,0.001258
1674.0,0.0009614
1675.0,0.001029
1676.0,0.001223
1677.0,0.0009688
1678.0,0.0007394
1679.0,0.00124
1680.0,0.0008715
1681.0,0.0007425
1682.0,0.001229
1683.0,0.001265
1684.0,0.0003674
1685.0,0.001226
1686.0,0.001238
1687.0,0.000747
1688.0,0.001091
1689.0,0.001144
1690.0,0.001029
1691.0,0.0003868
1692.0,0.0008748
1693.0,0.001225
1694.0,0.0007863
1695.0,0.001079
1696.0,0.00119
1697.0,0.0002307
1698.0,0.000997
1699.0,0.001048
1700.0,0.0008466
1702.0,0.0009942
1705.0,0.0007647
1710.0,0.0006404
1715.0,0.0009004
1720.0,0.0009205
1725.0,0.0003725
1730.0,0.0008314
1735.0,0.000583
1740.0,0.000838
1745.0,0.0008187
1750.0,0.0002988
1755.0,0.0007898
1760.0,0.0002483
1765.0,0.0004893
1770.0,0.0002109
1775.0,0.0004133
1780.0,0.0002938
1785.0,0.0001964
1790.0,4.012e-05
1795.0,1.637e-05
1800.0,1.126e-05
1805.0,4.472e-06
1810.0,2.958e-06
1815.0,8.401e-07
1820.0,2.102e-07
1825.0,2.743e-07
1830.0,6.686e-10
1835.0,1.037e-09
1840.0,5.909e-12
1845.0,6.318e-10
1850.0,2.853e-10
1855.0,2.727e-11
1860.0,1.563e-09
1865.0,2.178e-09
1870.0,1.192e-14
1875.0,2.154e-14
1880.0,1.147e-08
1885.0,6.114e-09
1890.0,3.353e-08
1895.0,1.946e-08
1900.0,8.318e-11
1905.0,5.666e-11
1910.0,2.745e-09
1915.0,2.674e-09
1920.0,7.014e-08
1925.0,1.648e-07
1930.0,9.517e-08
1935.0,7.255e-07
1940.0,7.269e-07
1945.0,2.968e-06
1950.0,5.771e-06
1955.0,5.147e-06
1960.0,9.049e-06
1965.0,0.000175
1970.0,0.000223
1975.0,0.0002016
1980.0,2.881e-05
1985.0,4.035e-05
1990.0,0.0003692
1995.0,0.0001537
2000.0,0.0002567
2005.0,0.0001872
2010.0,0.0003827
2015.0,6.439e-05
2020.0,0.000126
2025.0,0.000273
2030.0,0.0001455
2035.0,0.0003486
2040.0,0.0002334
2045.0,0.0002736
2050.0,0.0004696
2055.0,0.0002672
2060.0,0.0002187
2065.0,0.000454
2070.0,0.0003607
2075.0,0.0004381
2080.0,0.0005004
2085.0,0.0005073
2090.0,0.0004766
2095.0,0.0004297
2100.0,0.0002876
2105.0,0.000441
2110.0,0.000268
2115.0,0.000426
2120.0,0.000283
2125.0,0.0003843
2130.0,0.0004712
2135.0,0.000491
2140.0,0.000496
2145.0,0.0004948
2150.0,0.0002478
2155.0,0.0002354
2160.0,0.0002794
2165.0,0.000234
2170.0,0.0003249
2175.0,0.0002127
2180.0,0.0003019
2185.0,0.0002018
2190.0,0.0002602
2195.0,0.0002342
2200.0,4.822e-05
2205.0,0.0001431
2210.0,0.0003649
2215.0,0.0002026
2220.0,0.0002734
2225.0,0.0002146
2230.0,0.0002174
2235.0,0.0001758
2240.0,0.0001673
2245.0,9.623e-05
2250.0,0.0001629
2255.0,6.069e-05
2260.0,5.383e-05
2265.0,9.228e-05
2270.0,3.761e-05
2275.0,3.322e-05
2280.0,8.66e-05
2285.0,3.379e-05
2290.0,3.629e-05
2295.0,3.26e-05
2300.0,1.805e-05
2305.0,2.083e-05
2310.0,9.406e-05
2315.0,2.118e-05
2320.0,1.11e-05
2325.0,5.108e-05
2330.0,2.664e-05
2335.0,3.571e-05
2340.0,9.549e-06
2345.0,1.021e-05
2350.0,8.362e-06
2355.0,9.242e-06
2360.0,9.472e-06
2365.0,3.376e-05
2370.0,3.754e-06
2375.0,8.583e-06
2380.0,3.55e-05
2385.0,4.76e-06
2390.0,4.979e-06
2395.0,5.621e-06
2400.0,5.907e-06
2405.0,1.258e-05
2410.0,8.594e-06
2415.0,3.449e-06
2420.0,3.033e-06
2425.0,3.797e-06
2430.0,5.267e-06
2435.0,1.584e-06
2440.0,5.069e-06
2445.0,2.223e-06
2450.0,1.397e-06
2455.0,3.724e-06
2460.0,3.566e-06
2465.0,2.494e-06
2470.0,1.647e-06
2475.0,1.596e-06
2480.0,7.737e-07
2485.0,4.859e-07
2490.0,2.794e-07
2495.0,2.417e-07
2500.0,5.997e-07
2505.0,1.219e-07
2510.0,1.859e-07
2515.0,1.549e-07
2520.0,2.135e-08
2525.0,2.435e-09
2530.0,1.695e-11
2535.0,3.748e-12
2540.0,8.893e-12
2545.0,6.897e-16
2550.0,2.796e-18
2555.0,1.342e-14
2560.0,4.028e-16
2565.0,9.018000000000001e-20
2570.0,2.685e-24
2575.0,1.699e-34
2580.0,1.771e-28
2585.0,3.702e-42
2590.0,2.31e-38
2595.0,4.495e-40
2600.0,3.7e-35
2605.0,4.0890000000000004e-42
2610.0,1.408e-41
2615.0,1.4009999999999999e-45
2620.0,1.241e-35
2625.0,2.272e-35
2630.0,0.0
2635.0,1.183e-21
2640.0,2.561e-22
2645.0,1.116e-24
2650.0,1.112e-25
2655.0,1.337e-34
2660.0,1.126e-31
2665.0,1.121e-44
2670.0,0.0
2675.0,5.464999999999999e-44
2680.0,2.283e-30
2685.0,2.181e-31
2690.0,8.16e-31
2695.0,3.201e-33
2700.0,9.325e-29
2705.0,2.645e-26
2710.0,2.1060000000000003e-31
2715.0,2.659e-29
2720.0,0.0
2725.0,5.955e-27
2730.0,1.736e-24
2735.0,1.98e-26
2740.0,3.576e-32
2745.0,4.611e-27
2750.0,2.5840000000000003e-26
2755.0,4.158e-28
2760.0,6.229999999999999e-23
2765.0,2.924e-29
2770.0,1.437e-26
2775.0,1.774e-23
2780.0,8.259e-21
2785.0,3.1010000000000005e-20
2790.0,7.07e-18
2795.0,1.555e-18
2800.0,4.965e-15
2805.0,9.284e-17
2810.0,3.723e-13
2815.0,1.11e-13
2820.0,1.357e-15
2825.0,1.208e-11
2830.0,2.592e-10
2835.0,3.565e-15
2840.0,7.629e-12
2845.0,2.64e-09
2850.0,4.57e-11
2855.0,1.828e-11
2860.0,9.49e-10
2865.0,6.997e-09
2870.0,1.775e-10
2875.0,1.703e-08
2880.0,1.073e-08
2885.0,1.768e-08
2890.0,7.668e-09
2895.0,1.281e-07
2900.0,3.571e-08
2905.0,4.134e-09
2910.0,1.307e-07
2915.0,5.546e-08
2920.0,1.376e-07
2925.0,4.906e-08
2930.0,2.97e-07
2935.0,3.274e-07
2940.0,7.33e-08
2945.0,6.295e-08
2950.0,2.541e-07
2955.0,1.131e-07
2960.0,2.245e-07
2965.0,3.8e-07
2970.0,1.489e-08
2975.0,3.774e-08
2980.0,5.878e-08
2985.0,3.453e-07
2990.0,5.233e-07
2995.0,3.698e-07
3000.0,3.783e-07
3005.0,1.285e-07
3010.0,3.31e-07
3015.0,2.565e-07
3020.0,2.316e-08
3025.0,3.531e-07
3030.0,2.783e-07
3035.0,1.058e-07
3040.0,8.265e-08
3045.0,1.775e-07
3050.0,4.024e-08
3055.0,9.436e-08
3060.0,2.763e-07
3065.0,1.17e-07
3070.0,6.574e-08
3075.0,2.575e-07
3080.0,1.496e-07
3085.0,6.608e-08
3090.0,8.985e-08
3095.0,2.21e-08
3100.0,1.796e-07
3105.0,3.365e-08
3110.0,2.817e-08
3115.0,8.452e-08
3120.0,4.141e-07
3125.0,4.034e-06
3130.0,2.415e-07
3135.0,4.84e-07
3140.0,1.289e-07
3145.0,1.262e-07
3150.0,2.663e-07
3155.0,2.245e-07
3160.0,3.717e-07
3165.0,5.85e-07
3170.0,5.236e-07
3175.0,3.629e-07
3180.0,4.292e-07
3185.0,2.997e-07
3190.0,1.581e-07
3195.0,8.72e-08
3200.0,1.231e-08
3205.0,8.039e-09
3210.0,3.35e-09
3215.0,1.362e-08
3220.0,4.78e-08
3225.0,5.498e-09
3230.0,9.13e-09
3235.0,2.559e-07
3240.0,1.163e-07
3245.0,2.208e-08
3250.0,8.146e-08
3255.0,3.489e-07
3260.0,3.484e-08
3265.0,7.544e-08
3270.0,3.552e-08
3275.0,2.144e-07
3280.0,9.105e-08
3285.0,3.943e-07
3290.0,2.966e-07
3295.0,3.665e-08
3300.0,5.425e-08
3305.0,1.246e-07
3310.0,1.183e-07
3315.0,1.714e-10
3320.0,1.08e-09
3325.0,9.934e-08
3330.0,1.509e-07
3335.0,2.92e-07
3340.0,2.838e-06
3345.0,1.045e-07
3350.0,2.608e-07
3355.0,1.057e-07
3360.0,1.623e-07
3365.0,2.35e-07
3370.0,1.108e-07
3375.0,2.802e-07
3380.0,1.458e-07
3385.0,5.283e-07
3390.0,3.048e-07
3395.0,3.267e-07
3400.0,1.077e-06
3405.0,1.215e-07
3410.0,3.538e-07
3415.0,2.075e-07
3420.0,3.807e-06
3425.0,3.099e-07
3430.0,2.5e-07
3435.0,4.082e-06
3440.0,2.274e-07
3445.0,9.126e-07
3450.0,4.602e-07
3455.0,2.606e-07
3460.0,4.208e-06
3465.0,2.866e-07
3470.0,4.357e-06
3475.0,6.879e-07
3480.0,6.286e-07
3485.0,3.402e-06
3490.0,3.965e-07
3495.0,3.911e-06
3500.0,4.644e-06
3505.0,2.706e-06
3510.0,3.532e-06
3515.0,2.417e-06
3520.0,6.629e-06
3525.0,4.698e-06
3530.0,2.08e-06
3535.0,3.544e-07
3540.0,3.014e-07
3545.0,3.111e-07
3550.0,1.814e-06
3555.0,3.809e-07
3560.0,3.489e-06
3565.0,1.463e-06
3570.0,4.25e-07
3575.0,2.96e-07
3580.0,1.49e-06
3585.0,4.524e-07
3590.0,1.05e-06
3595.0,3.629e-06
3600.0,5.896e-06
3605.0,1.638e-06
3610.0,1.155e-06
3615.0,4.253e-06
3620.0,1.748e-05
3625.0,2.566e-06
3630.0,5.308e-06
3635.0,6.789e-06
3640.0,2.685e-05
3645.0,4.5e-06
3650.0,4.811e-06
3655.0,1.154e-05
3660.0,1.506e-05
3665.0,3.088e-06
3670.0,1.162e-06
3675.0,1.087e-07
3680.0,5.16e-07
3685.0,1.458e-06
3690.0,1.932e-06
3695.0,6.957e-06
3700.0,2.533e-05
3705.0,2.557e-05
3710.0,3.229e-06
3715.0,6.365e-06
3720.0,1.36e-05
3725.0,1.849e-05
3730.0,5.586e-06
3735.0,2.652e-06
3740.0,5.409e-06
3745.0,1.762e-05
3750.0,1.01e-05
3755.0,5.147e-06
3760.0,2.092e-06
3765.0,3.486e-06
3770.0,4.054e-06
3775.0,5.543e-06
3780.0,1.143e-05
3785.0,5.105e-06
3790.0,2.305e-06
3795.0,8.791e-06
3800.0,1.777e-05
3805.0,1.176e-05
3810.0,3.294e-06
3815.0,2.64e-06
3820.0,1.759e-05
3825.0,1.702e-05
3830.0,1.797e-05
3835.0,1.748e-06
3840.0,8.237e-06
3845.0,4.965e-06
3850.0,5.08e-06
3855.0,3.493e-06
3860.0,7.686e-07
3865.0,9.195e-07
3870.0,2.433e-07
3875.0,1.354e-07
3880.0,1.209e-07
3885.0,1.347e-07
3890.0,1.469e-07
3895.0,2.872e-07
3900.0,1.082e-06
3905.0,9.213e-07
3910.0,1.9e-07
3915.0,1.656e-07
3920.0,1.711e-07
3925.0,1.683e-07
3930.0,1.965e-07
3935.0,3.297e-07
3940.0,3.982e-07
3945.0,5.748e-07
3950.0,8.97e-07
3955.0,1.099e-06
3960.0,1.348e-06
3965.0,1.582e-06
3970.0,1.299e-06
3975.0,8.264e-07
3980.0,6.957e-07
3985.0,8.107e-07
3990.0,6.808e-07
3995.0,4.886e-07
4000.0,3.59e-07
