interpolation:linear
wavelength,value
280.0,3.155e-23
280.5,1.095e-21
281.0,5.966e-21
281.5,1.998e-19
282.0,1.639e-18
282.5,4.587e-18
283.0,1.386e-17
283.5,2.227e-17
284.0,3.678e-16
284.5,1.081e-15
285.0,1.025e-15
285.5,5.247e-15
286.0,2.126e-14
286.5,9.757e-14
287.0,2.831e-13
287.5,1.11e-12
288.0,8.28e-12
288.5,1.998e-11
289.0,4.712e-11
289.5,1.316e-10
290.0,3.492e-10
290.5,6.894e-10
291.0,1.438e-09
291.5,4.027e-09
292.0,7.631e-09
292.5,1.023e-08
293.0,2.09e-08
293.5,4.829e-08
294.0,7.243e-08
294.5,1.458e-08
295.0,2.453e-08
295.5,3.775e-08
296.0,6.682e-08
296.5,8.58e-08
297.0,1.082e-07
297.5,2.607e-07
298.0,3.745e-07
298.5,3.505e-07
299.0,7.197e-07
299.5,1.053e-06
300.0,1.078e-06
300.5,1.451e-06
301.0,2.33e-06
301.5,3.33e-06
302.0,2.694e-06
302.5,3.985e-06
303.0,7.04e-06
303.5,8.755e-06
304.0,8.147e-06
304.5,1.199e-05
305.0,1.829e-05
305.5,2.13e-05
306.0,2.08e-05
306.5,2.638e-05
307.0,4.126e-05
307.5,5.856e-05
308.0,6.26e-05
308.5,7.682e-05
309.0,6.747e-05
309.5,7.859e-05
310.0,8.064e-05
310.5,0.0001324
311.0,0.0001704
311.5,0.0001665
312.0,0.0001792
312.5,0.0002313
313.0,0.0002595
313.5,0.0002442
314.0,0.0003311
314.5,0.000332
315.0,0.0004468
315.5,0.0003508
316.0,0.0003414
316.5,0.0005613
317.0,0.0006952
317.5,0.0006955
318.0,0.0005966
318.5,0.0008951
319.0,0.001173
319.5,0.0008161
320.0,0.0009633
320.5,0.001471
321.0,0.001581
321.5,0.001545
322.0,0.001345
322.5,0.001182
323.0,0.001342
323.5,0.003352
324.0,0.004069
324.5,0.003733
325.0,0.001729
325.5,0.002483
326.0,0.005773
326.5,0.006599
327.0,0.006234
327.5,0.005675
328.0,0.004253
328.5,0.005498
329.0,0.007935
329.5,0.009547
330.0,0.009186
330.5,0.006313
331.0,0.006164
331.5,0.006951
332.0,0.008814
332.5,0.009352
333.0,0.008955
333.5,0.007211
334.0,0.007241
334.5,0.009543
335.0,0.00966
335.5,0.012
336.0,0.008299
336.5,0.008811
337.0,0.006842
337.5,0.008337
338.0,0.009059
338.5,0.01127
339.0,0.01124
339.5,0.01076
340.0,0.01176
340.5,0.01071
341.0,0.01116
341.5,0.01039
342.0,0.01247
342.5,0.01171
343.0,0.01277
343.5,0.01195
344.0,0.008259
344.5,0.008827
345.0,0.01187
345.5,0.01221
346.0,0.01042
346.5,0.01184
347.0,0.01262
347.5,0.01018
348.0,0.01171
348.5,0.01176
349.0,0.01094
349.5,0.01082
350.0,0.0134
350.5,0.01413
351.0,0.01257
351.5,0.01208
352.0,0.01307
352.5,0.01026
353.0,0.01297
353.5,0.0139
354.0,0.01446
354.5,0.01467
355.0,0.01459
355.5,0.0132
356.0,0.01383
356.5,0.01181
357.0,0.009759
357.5,0.01196
358.0,0.009485
358.5,0.00811
359.0,0.01133
359.5,0.0144
360.0,0.01528
360.5,0.01223
361.0,0.01117
361.5,0.01287
362.0,0.01114
362.5,0.01542
363.0,0.01386
363.5,0.01277
364.0,0.01562
364.5,0.01335
365.0,0.01359
365.5,0.01706
366.0,0.01809
366.5,0.017
367.0,0.01657
367.5,0.01719
368.0,0.01505
368.5,0.01518
369.0,0.0164
369.5,0.01749
370.0,0.01865
370.5,0.01448
371.0,0.01547
371.5,0.01936
372.0,0.01285
372.5,0.01542
373.0,0.01568
373.5,0.0102
374.0,0.01483
374.5,0.01228
375.0,0.01194
375.5,0.01784
376.0,0.01479
376.5,0.01533
377.0,0.01623
377.5,0.019
378.0,0.0206
378.5,0.01947
379.0,0.01607
379.5,0.01468
380.0,0.01527
380.5,0.0185
381.0,0.01854
381.5,0.0147
382.0,0.01306
382.5,0.01113
383.0,0.01031
383.5,0.009931
384.0,0.01096
384.5,0.01612
385.0,0.01599
385.5,0.01489
386.0,0.01276
386.5,0.01676
387.0,0.01393
387.5,0.01565
388.0,0.01445
388.5,0.01429
389.0,0.01543
389.5,0.01869
390.0,0.01876
390.5,0.01727
391.0,0.02033
391.5,0.02074
392.0,0.01747
392.5,0.01565
393.0,0.008708
393.5,0.006331
394.0,0.01289
394.5,0.01639
395.0,0.02
395.5,0.02032
396.0,0.01762
396.5,0.0103
397.0,0.007736
397.5,0.01574
398.0,0.02204
398.5,0.02279
399.0,0.02468
399.5,0.02461
400.0,0.02556
401.0,0.02525
402.0,0.02664
403.0,0.02532
404.0,0.02494
405.0,0.02494
406.0,0.02454
407.0,0.02414
408.0,0.02508
409.0,0.02684
410.0,0.02346
411.0,0.02542
412.0,0.02731
413.0,0.02666
414.0,0.02699
415.0,0.02706
416.0,0.02753
417.0,0.02685
418.0,0.02636
419.0,0.02672
420.0,0.02661
421.0,0.02784
422.0,0.02645
423.0,0.02581
424.0,0.02728
425.0,0.02722
426.0,0.02653
427.0,0.02605
428.0,0.02541
429.0,0.02409
430.0,0.02109
431.0,0.0209
432.0,0.02696
433.0,0.0271
434.0,0.02518
435.0,0.02632
436.0,0.02967
437.0,0.02927
438.0,0.02663
439.0,0.02748
440.0,0.02832
441.0,0.0293
442.0,0.03139
443.0,0.03056
444.0,0.03128
445.0,0.03066
446.0,0.02933
447.0,0.03176
448.0,0.03223
449.0,0.03233
450.0,0.0332
451.0,0.03443
452.0,0.03321
453.0,0.03127
454.0,0.03268
455.0,0.03284
456.0,0.03358
457.0,0.03406
458.0,0.03278
459.0,0.0325
460.0,0.03248
461.0,0.03317
462.0,0.03346
463.0,0.0333
464.0,0.03289
465.0,0.03261
466.0,0.033
467.0,0.03238
468.0,0.0327
469.0,0.0328
470.0,0.03171
471.0,0.03169
472.0,0.03341
473.0,0.03299
474.0,0.03299
475.0,0.03316
476.0,0.03197
477.0,0.03188
478.0,0.03264
479.0,0.03232
480.0,0.03228
481.0,0.03282
482.0,0.03301
483.0,0.03271
484.0,0.03216
485.0,0.03079
486.0,0.02705
487.0,0.02845
488.0,0.03122
489.0,0.03127
490.0,0.03288
491.0,0.03229
492.0,0.0305
493.0,0.03152
494.0,0.03186
495.0,0.03215
496.0,0.03231
497.0,0.03273
498.0,0.03106
499.0,0.03128
500.0,0.03018
501.0,0.02942
502.0,0.02872
503.0,0.02962
504.0,0.02846
505.0,0.0297
506.0,0.03068
507.0,0.02925
508.0,0.0285
509.0,0.02947
510.0,0.02946
511.0,0.03038
512.0,0.03078
513.0,0.02912
514.0,0.02891
515.0,0.02859
516.0,0.02848
517.0,0.0253
518.0,0.02657
519.0,0.02785
520.0,0.02881
521.0,0.02902
522.0,0.02894
523.0,0.02836
524.0,0.02917
525.0,0.02929
526.0,0.02787
527.0,0.02606
528.0,0.02741
529.0,0.02874
530.0,0.0282
531.0,0.0285
532.0,0.02746
533.0,0.02664
534.0,0.02748
535.0,0.02819
536.0,0.02855
537.0,0.0275
538.0,0.028
539.0,0.02774
540.0,0.0265
541.0,0.02642
542.0,0.02715
543.0,0.02698
544.0,0.02725
545.0,0.02718
546.0,0.02715
547.0,0.02727
548.0,0.02704
549.0,0.02716
550.0,0.02748
551.0,0.02718
552.0,0.02738
553.0,0.02686
554.0,0.02748
555.0,0.02749
556.0,0.02707
557.0,0.02613
558.0,0.0258
559.0,0.02517
560.0,0.02533
561.0,0.02549
562.0,0.02513
563.0,0.02563
564.0,0.02477
565.0,0.02442
566.0,0.02393
567.0,0.02418
568.0,0.02353
569.0,0.02248
570.0,0.02243
571.0,0.02234
572.0,0.02247
573.0,0.0226
574.0,0.02238
575.0,0.02181
576.0,0.0216
577.0,0.02189
578.0,0.02176
579.0,0.02221
580.0,0.02319
581.0,0.0238
582.0,0.02463
583.0,0.02501
584.0,0.02545
585.0,0.02499
586.0,0.02454
587.0,0.02488
588.0,0.02364
589.0,0.01941
590.0,0.02018
591.0,0.02244
592.0,0.02145
593.0,0.02242
594.0,0.02211
595.0,0.02085
596.0,0.02322
597.0,0.02223
598.0,0.02269
599.0,0.02287
600.0,0.0231
601.0,0.02317
602.0,0.02311
603.0,0.02373
604.0,0.02429
605.0,0.02434
606.0,0.02437
607.0,0.02477
608.0,0.02468
609.0,0.02492
610.0,0.02494
611.0,0.02527
612.0,0.02539
613.0,0.02525
614.0,0.02508
615.0,0.02579
616.0,0.02507
617.0,0.02513
618.0,0.02621
619.0,0.02603
620.0,0.02624
621.0,0.02631
622.0,0.02604
623.0,0.02564
624.0,0.02513
625.0,0.02501
626.0,0.02524
627.0,0.02511
628.0,0.01855
629.0,0.0225
630.0,0.02179
631.0,0.02391
632.0,0.02406
633.0,0.02554
634.0,0.02598
635.0,0.0268
636.0,0.02683
637.0,0.02765
638.0,0.02846
639.0,0.02844
640.0,0.02857
641.0,0.02883
642.0,0.02905
643.0,0.02956
644.0,0.02977
645.0,0.02957
646.0,0.02829
647.0,0.02594
648.0,0.02656
649.0,0.02534
650.0,0.02805
651.0,0.02979
652.0,0.02656
653.0,0.02973
654.0,0.02955
655.0,0.02726
656.0,0.02487
657.0,0.02593
658.0,0.02973
659.0,0.03048
660.0,0.03081
661.0,0.03177
662.0,0.03245
663.0,0.0319
664.0,0.03237
665.0,0.03254
666.0,0.03278
667.0,0.03294
668.0,0.03326
669.0,0.0339
670.0,0.03393
671.0,0.03411
672.0,0.03398
673.0,0.03465
674.0,0.03467
675.0,0.0345
676.0,0.03488
677.0,0.03468
678.0,0.03491
679.0,0.03448
680.0,0.03484
681.0,0.03463
682.0,0.03463
683.0,0.03456
684.0,0.03432
685.0,0.03488
686.0,0.03436
687.0,0.008534
688.0,0.01122
689.0,0.01133
690.0,0.01305
691.0,0.0161
692.0,0.01988
693.0,0.02038
694.0,0.02202
695.0,0.02625
696.0,0.02652
697.0,0.03308
698.0,0.0318
699.0,0.02772
700.0,0.02748
701.0,0.0257
702.0,0.02668
703.0,0.02815
704.0,0.03113
705.0,0.03052
706.0,0.0312
707.0,0.03162
708.0,0.03171
709.0,0.03329
710.0,0.03182
711.0,0.03255
712.0,0.03359
713.0,0.03197
714.0,0.03294
715.0,0.03044
716.0,0.02965
717.0,0.01667
718.0,0.01555
719.0,0.01418
720.0,0.01362
721.0,0.01863
722.0,0.02543
723.0,0.02194
724.0,0.01732
725.0,0.01638
726.0,0.01662
727.0,0.01961
728.0,0.01546
729.0,0.01861
730.0,0.01868
731.0,0.01723
732.0,0.02198
733.0,0.02608
734.0,0.02836
735.0,0.02718
736.0,0.02605
737.0,0.02663
738.0,0.031
739.0,0.03053
740.0,0.03251
741.0,0.03281
742.0,0.03368
743.0,0.03467
744.0,0.03502
745.0,0.03566
746.0,0.03584
747.0,0.03609
748.0,0.03609
749.0,0.03575
750.0,0.03577
751.0,0.03543
752.0,0.03567
753.0,0.03593
754.0,0.03598
755.0,0.03571
756.0,0.03582
757.0,0.03583
758.0,0.03524
759.0,0.03062
760.0,0.001502
761.0,0.0008012
762.0,0.004424
763.0,0.002239
764.0,0.003312
765.0,0.004374
766.0,0.005583
767.0,0.009138
768.0,0.01859
769.0,0.02279
770.0,0.02942
771.0,0.03292
772.0,0.03412
773.0,0.03467
774.0,0.03477
775.0,0.03471
776.0,0.03526
777.0,0.03485
778.0,0.0346
779.0,0.03465
780.0,0.03454
781.0,0.03463
782.0,0.03491
783.0,0.03438
784.0,0.03467
785.0,0.03418
786.0,0.03423
787.0,0.03098
788.0,0.02992
789.0,0.03001
790.0,0.02688
791.0,0.02932
792.0,0.02967
793.0,0.02895
794.0,0.03238
795.0,0.03223
796.0,0.02669
797.0,0.02689
798.0,0.03166
799.0,0.03082
800.0,0.02875
801.0,0.02787
802.0,0.02734
803.0,0.02607
804.0,0.02702
805.0,0.0283
806.0,0.03172
807.0,0.03104
808.0,0.03065
809.0,0.02797
810.0,0.02757
811.0,0.02489
812.0,0.02202
813.0,0.02131
814.0,0.01483
815.0,0.01515
816.0,0.01409
817.0,0.01402
818.0,0.01316
819.0,0.01615
820.0,0.01606
821.0,0.02332
822.0,0.02088
823.0,0.007403
824.0,0.0181
825.0,0.02456
826.0,0.01939
827.0,0.0235
828.0,0.01362
829.0,0.02085
830.0,0.0205
831.0,0.02001
832.0,0.01845
833.0,0.02163
834.0,0.02025
835.0,0.02701
836.0,0.02227
837.0,0.02676
838.0,0.02426
839.0,0.02656
840.0,0.02796
841.0,0.02637
842.0,0.02798
843.0,0.03039
844.0,0.02908
845.0,0.03095
846.0,0.03158
847.0,0.03144
848.0,0.03033
849.0,0.0296
850.0,0.02823
851.0,0.02895
852.0,0.02946
853.0,0.02894
854.0,0.02447
855.0,0.02762
856.0,0.02993
857.0,0.03121
858.0,0.03071
859.0,0.03131
860.0,0.03166
861.0,0.03137
862.0,0.03204
863.0,0.03277
864.0,0.03122
865.0,0.03105
866.0,0.02792
867.0,0.02917
868.0,0.03178
869.0,0.03118
870.0,0.03211
871.0,0.03164
872.0,0.03161
873.0,0.03157
874.0,0.03121
875.0,0.03051
876.0,0.03079
877.0,0.03114
878.0,0.03137
879.0,0.03091
880.0,0.03022
881.0,0.02933
882.0,0.02963
883.0,0.03029
884.0,0.02992
885.0,0.02995
886.0,0.02723
887.0,0.0288
888.0,0.02847
889.0,0.03013
890.0,0.02831
891.0,0.02909
892.0,0.02583
893.0,0.02405
894.0,0.01972
895.0,0.01547
896.0,0.01336
897.0,0.009717
898.0,0.01101
899.0,0.006028
900.0,0.01179
901.0,0.006476
902.0,0.008387
903.0,0.008673
904.0,0.01808
905.0,0.01651
906.0,0.01453
907.0,0.007614
908.0,0.00922
909.0,0.01002
910.0,0.006587
911.0,0.009711
912.0,0.01075
913.0,0.006739
914.0,0.008288
915.0,0.007152
916.0,0.006661
917.0,0.009832
918.0,0.006266
919.0,0.01058
920.0,0.01454
921.0,0.01425
922.0,0.0106
923.0,0.01407
924.0,0.009918
925.0,0.009247
926.0,0.00944
927.0,0.01178
928.0,0.004106
929.0,0.003131
930.0,0.001718
931.0,0.001541
932.0,0.00101
933.0,0.000797
934.0,0.0004274
935.0,0.0008101
936.0,0.0004976
937.0,0.0005025
938.0,0.000616
939.0,0.001453
940.0,0.001967
941.0,0.001253
942.0,0.001489
943.0,0.0009035
944.0,0.001013
945.0,0.001298
946.0,0.0005935
947.0,0.001263
948.0,0.0009304
949.0,0.001905
950.0,0.0004281
951.0,0.001837
952.0,0.0008956
953.0,0.001201
954.0,0.001554
955.0,0.001382
956.0,0.001689
957.0,0.0008965
958.0,0.002602
959.0,0.001562
960.0,0.001876
961.0,0.002567
962.0,0.002426
963.0,0.003736
964.0,0.00318
965.0,0.003239
966.0,0.003889
967.0,0.003859
968.0,0.01261
969.0,0.01001
970.0,0.009922
971.0,0.01396
972.0,0.01267
973.0,0.007097
974.0,0.006853
975.0,0.00799
976.0,0.006165
977.0,0.01206
978.0,0.008405
979.0,0.009807
980.0,0.009287
981.0,0.0145
982.0,0.01292
983.0,0.01137
984.0,0.01832
985.0,0.01214
986.0,0.02168
987.0,0.01835
988.0,0.01947
989.0,0.02338
990.0,0.01805
991.0,0.02328
992.0,0.02369
993.0,0.02046
994.0,0.02412
995.0,0.02469
996.0,0.024
997.0,0.02424
998.0,0.0239
999.0,0.02401
1000.0,0.02319
1001.0,0.02428
1002.0,0.01998
1003.0,0.02374
1004.0,0.02196
1005.0,0.02244
1006.0,0.02312
1007.0,0.02357
1008.0,0.02303
1009.0,0.02231
1010.0,0.02206
1011.0,0.02342
1012.0,0.02296
1013.0,0.02372
1014.0,0.02354
1015.0,0.02335
1016.0,0.0231
1017.0,0.02295
1018.0,0.02339
1019.0,0.02143
1020.0,0.02309
1021.0,0.02328
1022.0,0.02259
1023.0,0.02294
1024.0,0.02133
1025.0,0.02319
1026.0,0.02261
1027.0,0.02287
1028.0,0.02268
1029.0,0.0221
1030.0,0.02277
1031.0,0.02258
1032.0,0.02257
1033.0,0.02229
1034.0,0.02229
1035.0,0.02237
1036.0,0.02225
1037.0,0.02199
1038.0,0.02201
1039.0,0.02188
1040.0,0.02175
1041.0,0.02168
1042.0,0.02151
1043.0,0.02135
1044.0,0.02132
1045.0,0.02093
1046.0,0.02059
1047.0,0.02064
1048.0,0.02062
1049.0,0.02041
1050.0,0.02016
1051.0,0.01996
1052.0,0.01971
1053.0,0.01934
1054.0,0.01916
1055.0,0.01892
1056.0,0.01857
1057.0,0.0183
1058.0,0.01764
1059.0,0.01739
1060.0,0.01725
1061.0,0.01709
1062.0,0.01699
1063.0,0.01658
1064.0,0.01685
1065.0,0.01617
1066.0,0.01627
1067.0,0.0164
1068.0,0.01567
1069.0,0.01559
1070.0,0.0161
1071.0,0.01713
1072.0,0.01635
1073.0,0.01613
1074.0,0.0178
1075.0,0.0147
1076.0,0.01776
1077.0,0.01643
1078.0,0.01508
1079.0,0.01815
1080.0,0.01573
1081.0,0.01421
1082.0,0.01659
1083.0,0.01716
1084.0,0.0139
1085.0,0.01616
1086.0,0.01223
1087.0,0.01408
1088.0,0.01696
1089.0,0.01363
1090.0,0.0127
1091.0,0.0159
1092.0,0.01614
1093.0,0.00917
1094.0,0.014
1095.0,0.009127
1096.0,0.007831
1097.0,0.01595
1098.0,0.007604
1099.0,0.007651
1100.0,0.005714
1101.0,0.006765
1102.0,0.005514
1103.0,0.004525
1104.0,0.005131
1105.0,0.00622
1106.0,0.00227
1107.0,0.005939
1108.0,0.002878
1109.0,0.002784
1110.0,0.004217
1111.0,0.001137
1112.0,0.002983
1113.0,0.0007233
1114.0,0.0007801
1115.0,0.0005739
1116.0,0.0003503
1117.0,0.0001209
1118.0,0.0003839
1119.0,0.0001787
1120.0,0.0002234
1121.0,0.0002966
1122.0,0.0001225
1123.0,0.0001996
1124.0,0.0001679
1125.0,0.0002196
1126.0,7.427e-05
1127.0,0.0002457
1128.0,0.0001444
1129.0,0.0001529
1130.0,9.97e-05
1131.0,0.0004803
1132.0,0.0003699
1133.0,0.0002261
1134.0,5.622e-05
1135.0,2.107e-05
1136.0,0.0001856
1137.0,0.0004576
1138.0,0.0003176
1139.0,0.0005856
1140.0,0.0004272
1141.0,0.0003016
1142.0,0.0003535
1143.0,0.0005454
1144.0,0.0001674
1145.0,0.0002091
1146.0,0.0002248
1147.0,7.725e-05
1148.0,0.0004518
1149.0,0.0003367
1150.0,0.0001813
1151.0,0.0003052
1152.0,0.0003951
1153.0,0.0004224
1154.0,0.0001999
1155.0,0.0006268
1156.0,0.0005409
1157.0,0.0009103
1158.0,0.0009005
1159.0,0.0009909
1160.0,0.0009917
1161.0,0.002137
1162.0,0.002264
1163.0,0.005533
1164.0,0.003903
1165.0,0.002647
1166.0,0.003778
1167.0,0.004357
1168.0,0.004733
1169.0,0.005363
1170.0,0.007166
1171.0,0.006081
1172.0,0.008202
1173.0,0.006578
1174.0,0.002559
1175.0,0.007733
1176.0,0.01183
1177.0,0.009178
1178.0,0.004394
1179.0,0.01138
1180.0,0.007888
1181.0,0.007247
1182.0,0.00236
1183.0,0.007745
1184.0,0.006707
1185.0,0.005297
1186.0,0.009425
1187.0,0.007062
1188.0,0.002138
1189.0,0.006747
1190.0,0.009702
1191.0,0.006754
1192.0,0.01026
1193.0,0.009298
1194.0,0.009689
1195.0,0.007357
1196.0,0.00603
1197.0,0.01004
1198.0,0.009154
1199.0,0.004123
1200.0,0.008617
1201.0,0.006495
1202.0,0.008698
1203.0,0.006847
1204.0,0.006111
1205.0,0.01011
1206.0,0.01288
1207.0,0.007873
1208.0,0.008909
1209.0,0.008909
1210.0,0.01089
1211.0,0.00926
1212.0,0.006294
1213.0,0.01094
1214.0,0.007246
1215.0,0.0068
1216.0,0.01172
1217.0,0.01049
1218.0,0.01159
1219.0,0.01078
1220.0,0.01148
1221.0,0.01284
1222.0,0.01166
1223.0,0.01123
1224.0,0.01011
1225.0,0.01181
1226.0,0.01316
1227.0,0.009083
1228.0,0.01396
1229.0,0.01293
1230.0,0.01239
1231.0,0.01461
1232.0,0.01447
1233.0,0.0109
1234.0,0.01549
1235.0,0.01467
1236.0,0.01536
1237.0,0.01383
1238.0,0.01531
1239.0,0.01511
1240.0,0.01539
1241.0,0.01436
1242.0,0.01513
1243.0,0.0151
1244.0,0.0148
1245.0,0.01511
1246.0,0.01508
1247.0,0.01465
1248.0,0.01415
1249.0,0.01464
1250.0,0.01418
1251.0,0.01328
1252.0,0.01422
1253.0,0.01247
1254.0,0.01138
1255.0,0.01382
1256.0,0.01064
1257.0,0.01007
1258.0,0.0123
1259.0,0.008247
1260.0,0.008687
1261.0,0.005146
1262.0,0.003875
1263.0,0.003861
1264.0,0.001977
1265.0,0.00384
1266.0,0.002635
1267.0,0.003392
1268.0,0.002196
1269.0,0.0002564
1270.0,0.003061
1271.0,0.005572
1272.0,0.005699
1273.0,0.005345
1274.0,0.005903
1275.0,0.006358
1276.0,0.007124
1277.0,0.008231
1278.0,0.00972
1279.0,0.009877
1280.0,0.009826
1281.0,0.01028
1282.0,0.01119
1283.0,0.01172
1284.0,0.01201
1285.0,0.0124
1286.0,0.01313
1287.0,0.01186
1288.0,0.0124
1289.0,0.009305
1290.0,0.01219
1291.0,0.01294
1292.0,0.008221
1293.0,0.01197
1294.0,0.01152
1295.0,0.009415
1296.0,0.007714
1297.0,0.00641
1298.0,0.008982
1299.0,0.01171
1300.0,0.005512
1301.0,0.005548
1302.0,0.009097
1303.0,0.006104
1304.0,0.002563
1305.0,0.008269
1306.0,0.00722
1307.0,0.00327
1308.0,0.005727
1309.0,0.006439
1310.0,0.00304
1311.0,0.005373
1312.0,0.004919
1313.0,0.003473
1314.0,0.001921
1315.0,0.001845
1316.0,0.004636
1317.0,0.004261
1318.0,0.00548
1319.0,0.001829
1320.0,0.001586
1321.0,0.002845
1322.0,0.002048
1323.0,0.0006489
1324.0,0.001871
1325.0,0.003134
1326.0,0.002035
1327.0,0.001573
1328.0,0.000743
1329.0,0.0002363
1330.0,0.0004649
1331.0,0.0001487
1332.0,0.0001427
1333.0,0.0002267
1334.0,0.0003552
1335.0,0.0004243
1336.0,0.0002371
1337.0,0.0002301
1338.0,0.0002273
1339.0,0.00022
1340.0,0.0002391
1341.0,0.0001616
1342.0,0.0001795
1343.0,0.0001017
1344.0,6.066e-05
1345.0,8.594e-05
1346.0,4.228e-05
1347.0,4.283e-05
1348.0,2.761e-06
1349.0,9.905e-06
1350.0,1.027e-05
1351.0,2.482e-06
1352.0,6.678e-07
1353.0,3.398e-08
1354.0,1.168e-07
1355.0,9.406e-10
1356.0,1.646e-08
1357.0,2.501e-08
1358.0,1.104e-09
1359.0,1.391e-10
1360.0,5.029e-10
1361.0,5.625e-13
1362.0,1.539e-15
1363.0,6.763e-10
1364.0,2.792e-10
1365.0,5.374e-16
1366.0,2.931e-09
1367.0,1.197e-09
1368.0,4.15e-18
1369.0,1.029e-10
1370.0,5.068e-11
1371.0,2.873e-12
1372.0,6.491e-10
1373.0,1.308e-08
1374.0,6.066e-08
1375.0,1.1e-07
1376.0,9.868e-08
1377.0,4.507e-08
1378.0,4.407e-07
1379.0,1.883e-08
1380.0,2.707e-08
1381.0,7.051e-10
1382.0,5.692e-10
1383.0,8.509e-12
1384.0,1.116e-10
1385.0,5.336e-10
1386.0,5.019e-10
1387.0,6.071e-08
1388.0,1.194e-09
1389.0,2.05e-07
1390.0,1.759e-07
1391.0,1.17e-07
1392.0,7.585e-09
1393.0,4.019e-08
1394.0,2.071e-08
1395.0,1.518e-10
1396.0,7.336e-13
1397.0,1.583e-08
1398.0,4.679e-07
1399.0,2.96e-07
1400.0,3.138e-13
1401.0,1.302e-12
1402.0,8.2e-07
1403.0,1.027e-06
1404.0,3.121e-07
1405.0,7.191e-11
1406.0,8.067e-07
1407.0,7.11e-08
1408.0,6.564e-07
1409.0,2.188e-07
1410.0,1.752e-07
1411.0,8.835e-07
1412.0,1.192e-06
1413.0,1.241e-05
1414.0,1.368e-07
1415.0,6.533e-08
1416.0,2.051e-05
1417.0,6.055e-06
1418.0,6.857e-06
1419.0,1.055e-06
1420.0,4.167e-06
1421.0,4.496e-06
1422.0,2.636e-05
1423.0,5.057e-06
1424.0,9.494e-06
1425.0,1.387e-05
1426.0,1.587e-05
1427.0,2.952e-05
1428.0,2.066e-06
1429.0,2.174e-05
1430.0,3.755e-05
1431.0,4.127e-05
1432.0,1.606e-06
1433.0,2.588e-05
1434.0,1.302e-05
1435.0,1.261e-05
1436.0,2.485e-05
1437.0,1.9e-05
1438.0,7.842e-06
1439.0,3.378e-05
1440.0,2.524e-05
1441.0,1.885e-05
1442.0,2.089e-05
1443.0,2.665e-05
1444.0,3.717e-05
1445.0,2.851e-05
1446.0,1.264e-05
1447.0,1.993e-05
1448.0,7.114e-05
1449.0,6.105e-05
1450.0,1.47e-05
1451.0,5.784e-06
1452.0,3.572e-05
1453.0,4.714e-05
1454.0,8.839e-05
1455.0,3.834e-05
1456.0,5.113e-05
1457.0,7.096e-05
1458.0,0.0001001
1459.0,0.0001198
1460.0,5.361e-05
1461.0,5.155e-05
1462.0,8.21e-05
1463.0,2.436e-05
1464.0,0.0001054
1465.0,6.053e-05
1466.0,3.611e-05
1467.0,1.846e-05
1468.0,4.281e-05
1469.0,5.35e-05
1470.0,2.543e-05
1471.0,9.035e-06
1472.0,2.417e-05
1473.0,3.761e-05
1474.0,6.018e-05
1475.0,0.0001444
1476.0,3.802e-05
1477.0,3.745e-05
1478.0,3.619e-05
1479.0,7.577e-05
1480.0,3.21e-05
1481.0,6.643e-05
1482.0,3.218e-05
1483.0,0.0001042
1484.0,0.0001302
1485.0,9.513e-05
1486.0,7.408e-05
1487.0,3.069e-05
1488.0,6.877e-05
1489.0,0.0002606
1490.0,0.0004568
1491.0,0.000544
1492.0,0.0001681
1493.0,0.0004437
1494.0,0.001071
1495.0,0.0005671
1496.0,0.0003955
1497.0,0.002149
1498.0,0.001122
1499.0,0.001422
1500.0,0.003746
1501.0,0.003617
1502.0,0.002877
1503.0,0.001277
1504.0,0.0003376
1505.0,0.001298
1506.0,0.004502
1507.0,0.004126
1508.0,0.003839
1509.0,0.001472
1510.0,0.0054
1511.0,0.004108
1512.0,0.005533
1513.0,0.003099
1514.0,0.002496
1515.0,0.006163
1516.0,0.005364
1517.0,0.003785
1518.0,0.004721
1519.0,0.003492
1520.0,0.004936
1521.0,0.008534
1522.0,0.006106
1523.0,0.008922
1524.0,0.007194
1525.0,0.005225
1526.0,0.005058
1527.0,0.006185
1528.0,0.008283
1529.0,0.007286
1530.0,0.005726
1531.0,0.006898
1532.0,0.009067
1533.0,0.009533
1534.0,0.009303
1535.0,0.008554
1536.0,0.009094
1537.0,0.008546
1538.0,0.009429
1539.0,0.008872
1540.0,0.009437
1541.0,0.009252
1542.0,0.008738
1543.0,0.009416
1544.0,0.008992
1545.0,0.009703
1546.0,0.008837
1547.0,0.009248
1548.0,0.009286
1549.0,0.009708
1550.0,0.009456
1551.0,0.009301
1552.0,0.008984
1553.0,0.009441
1554.0,0.009144
1555.0,0.009414
1556.0,0.00928
1557.0,0.009497
1558.0,0.009451
1559.0,0.009346
1560.0,0.009332
1561.0,0.009436
1562.0,0.009068
1563.0,0.009032
1564.0,0.008985
1565.0,0.0094
1566.0,0.009045
1567.0,0.009164
1568.0,0.008949
1569.0,0.009314
1570.0,0.009304
1571.0,0.00931
1572.0,0.009261
1573.0,0.009033
1574.0,0.008537
1575.0,0.008322
1576.0,0.007738
1577.0,0.007439
1578.0,0.007582
1579.0,0.007204
1580.0,0.007456
1581.0,0.007377
1582.0,0.007363
1583.0,0.00724
1584.0,0.008192
1585.0,0.008473
1586.0,0.008237
1587.0,0.008074
1588.0,0.008542
1589.0,0.008351
1590.0,0.008268
1591.0,0.008622
1592.0,0.008489
1593.0,0.008996
1594.0,0.008756
1595.0,0.008828
1596.0,0.008423
1597.0,0.008225
1598.0,0.008933
1599.0,0.008876
1600.0,0.00899
1601.0,0.008636
1602.0,0.008434
1603.0,0.008957
1604.0,0.008846
1605.0,0.008909
1606.0,0.008778
1607.0,0.008879
1608.0,0.008432
1609.0,0.008532
1610.0,0.008325
1611.0,0.008425
1612.0,0.008709
1613.0,0.008418
1614.0,0.008596
1615.0,0.008463
1616.0,0.008304
1617.0,0.008158
1618.0,0.008633
1619.0,0.008046
1620.0,0.008344
1621.0,0.008301
1622.0,0.008411
1623.0,0.008589
1624.0,0.008246
1625.0,0.008181
1626.0,0.008155
1627.0,0.008351
1628.0,0.008099
1629.0,0.008246
1630.0,0.008072
1631.0,0.007541
1632.0,0.00783
1633.0,0.006574
1634.0,0.007909
1635.0,0.00651
1636.0,0.007277
1637.0,0.00759
1638.0,0.005185
1639.0,0.007362
1640.0,0.004808
1641.0,0.006993
1642.0,0.007682
1643.0,0.004172
1644.0,0.007921
1645.0,0.005616
1646.0,0.004061
1647.0,0.007914
1648.0,0.004135
1649.0,0.006914
1650.0,0.007227
1651.0,0.003474
1652.0,0.006751
1653.0,0.007358
1654.0,0.004257
1655.0,0.007157
1656.0,0.005847
1657.0,0.006425
1658.0,0.007578
1659.0,0.007182
1660.0,0.007239
1661.0,0.007183
1662.0,0.005926
1663.0,0.007499
1664.0,0.007173
1665.0,0.004213
1666.0,0.0006295
1667.0,0.004222
1668.0,0.00663
1669.0,0.006773
1670.0,0.007373
1671.0,0.00661
1672.0,0.00706
1673.0,0.007363
1674.0,0.006055
1675.0,0.006319
1676.0,0.006956
1677.0,0.006254
1678.0,0.005159
1679.0,0.007167
1680.0,0.006564
1681.0,0.005125
1682.0,0.006993
1683.0,0.007196
1684.0,0.003464
1685.0,0.007181
1686.0,0.007124
1687.0,0.005202
1688.0,0.00673
1689.0,0.006829
1690.0,0.006308
1691.0,0.003743
1692.0,0.005913
1693.0,0.007173
1694.0,0.005347
1695.0,0.00668
1696.0,0.007066
1697.0,0.0027
1698.0,0.006402
1699.0,0.00652
1700.0,0.005498
1702.0,0.006314
1705.0,0.005147
1710.0,0.004647
1715.0,0.004909
1720.0,0.005147
1725.0,0.003471
1730.0,0.003991
1735.0,0.003461
1740.0,0.003398
1745.0,0.003332
1750.0,0.002743
1755.0,0.002548
1760.0,0.002384
1765.0,0.001394
1770.0,0.001316
1775.0,0.0006974
1780.0,0.0003685
1785.0,0.0001217
1790.0,0.0001295
1795.0,1.148e-05
1800.0,7.949e-06
1805.0,3.12e-06
1810.0,2.028e-06
1815.0,5.861e-07
1820.0,1.466e-07
1825.0,1.913e-07
1830.0,4.664e-10
1835.0,7.063e-10
1840.0,4.121e-12
1845.0,4.407e-10
1850.0,1.989e-10
1855.0,1.901e-11
1860.0,1.09e-09
1865.0,1.518e-09
1870.0,8.311e-15
1875.0,1.502e-14
1880.0,7.997e-09
1885.0,4.262e-09
1890.0,2.338e-08
1895.0,1.356e-08
1900.0,5.798e-11
1905.0,3.949e-11
1910.0,1.913e-09
1915.0,1.864e-09
1920.0,4.888e-08
1925.0,1.148e-07
1930.0,6.632e-08
1935.0,5.055e-07
1940.0,5.021e-07
1945.0,2.068e-06
1950.0,4.131e-06
1955.0,3.587e-06
1960.0,6.908e-06
1965.0,9.193e-05
1970.0,0.000289
1975.0,0.0003962
1980.0,0.000321
1985.0,0.0005272
1990.0,0.0008425
1995.0,0.0009361
2000.0,0.001438
2005.0,0.0006497
2010.0,0.00294
2015.0,0.0009671
2020.0,0.001537
2025.0,0.002401
2030.0,0.0017
2035.0,0.002925
2040.0,0.002331
2045.0,0.002473
2050.0,0.003157
2055.0,0.002439
2060.0,0.002194
2065.0,0.002447
2070.0,0.002216
2075.0,0.003
2080.0,0.002938
2085.0,0.002889
2090.0,0.003124
2095.0,0.002839
2100.0,0.002131
2105.0,0.002843
2110.0,0.002353
2115.0,0.00288
2120.0,0.002137
2125.0,0.002519
2130.0,0.00287
2135.0,0.00302
2140.0,0.003123
2145.0,0.00307
2150.0,0.0021
2155.0,0.002111
2160.0,0.002207
2165.0,0.001885
2170.0,0.002323
2175.0,0.00186
2180.0,0.00223
2185.0,0.001482
2190.0,0.002108
2195.0,0.001967
2200.0,0.000665
2205.0,0.00139
2210.0,0.002443
2215.0,0.001872
2220.0,0.001999
2225.0,0.001759
2230.0,0.00179
2235.0,0.001564
2240.0,0.001517
2245.0,0.001075
2250.0,0.001485
2255.0,0.0007956
2260.0,0.0007229
2265.0,0.00104
2270.0,0.0005646
2275.0,0.0005139
2280.0,0.0009943
2285.0,0.0005203
2290.0,0.0005511
2295.0,0.0005078
2300.0,0.0002924
2305.0,0.0003375
2310.0,0.001055
2315.0,0.000357
2320.0,0.0001398
2325.0,0.0006443
2330.0,0.0004258
2335.0,0.0005527
2340.0,0.0001068
2345.0,0.0001628
2350.0,7.546e-05
2355.0,0.0001188
2360.0,0.0001888
2365.0,0.0003514
2370.0,6.472e-06
2375.0,9.997e-05
2380.0,0.0001593
2385.0,3.037e-05
2390.0,5.13e-05
2395.0,7.202e-05
2400.0,9.864e-05
2405.0,7.522e-05
2410.0,7.415e-05
2415.0,9.909e-06
2420.0,9.506e-06
2425.0,1.74e-05
2430.0,5.88e-05
2435.0,1.524e-06
2440.0,6.913e-05
2445.0,3.136e-06
2450.0,1.169e-06
2455.0,1.368e-05
2460.0,7.99e-06
2465.0,2.408e-06
2470.0,1.151e-06
2475.0,1.152e-06
2480.0,5.364e-07
2485.0,3.376e-07
2490.0,1.942e-07
2495.0,1.68e-07
2500.0,4.167e-07
2505.0,8.477e-08
2510.0,1.249e-07
2515.0,2.64e-08
2520.0,1.483e-08
2525.0,1.692e-09
2530.0,1.178e-11
2535.0,2.604e-12
2540.0,6.179e-12
2545.0,4.792e-16
2550.0,1.943e-18
2555.0,9.325e-15
2560.0,2.799e-16
2565.0,6.265000000000001e-20
2570.0,1.866e-24
2575.0,1.1800000000000001e-34
2580.0,1.2310000000000001e-28
2585.0,2.5710000000000003e-42
2590.0,1.605e-38
2595.0,3.122e-40
2600.0,2.571e-35
2605.0,2.84e-42
2610.0,9.780000000000001e-42
2615.0,1.4009999999999999e-45
2620.0,8.617e-36
2625.0,1.578e-35
2630.0,0.0
2635.0,8.217999999999999e-22
2640.0,1.7789999999999997e-22
2645.0,7.754e-25
2650.0,7.724000000000001e-26
2655.0,9.289e-35
2660.0,7.821e-32
2665.0,7.006e-45
2670.0,0.0
2675.0,3.784e-44
2680.0,1.586e-30
2685.0,1.515e-31
2690.0,5.6680000000000005e-31
2695.0,2.224e-33
2700.0,6.477e-29
2705.0,1.837e-26
2710.0,1.463e-31
2715.0,1.8469999999999998e-29
2720.0,0.0
2725.0,4.136e-27
2730.0,1.206e-24
2735.0,1.375e-26
2740.0,2.484e-32
2745.0,3.202e-27
2750.0,1.795e-26
2755.0,2.888e-28
2760.0,4.326e-23
2765.0,2.031e-29
2770.0,9.979e-27
2775.0,1.407e-17
2780.0,5.735e-21
2785.0,2.153e-20
2790.0,2.554e-17
2795.0,1.08e-18
2800.0,2.701e-13
2805.0,6.447e-17
2810.0,2.585e-13
2815.0,7.711e-14
2820.0,9.422e-16
2825.0,8.271e-12
2830.0,1.797e-10
2835.0,2.476e-15
2840.0,7.32e-11
2845.0,1.833e-09
2850.0,3.173e-11
2855.0,1.268e-11
2860.0,6.59e-10
2865.0,4.859e-09
2870.0,1.356e-10
2875.0,1.183e-08
2880.0,7.453e-09
2885.0,1.228e-08
2890.0,5.219e-09
2895.0,8.896e-08
2900.0,2.48e-08
2905.0,2.87e-09
2910.0,9.074e-08
2915.0,3.851e-08
2920.0,9.556e-08
2925.0,3.408e-08
2930.0,2.07e-07
2935.0,2.277e-07
2940.0,5.095e-08
2945.0,4.371e-08
2950.0,1.765e-07
2955.0,7.857e-08
2960.0,1.6e-07
2965.0,2.853e-07
2970.0,1.034e-08
2975.0,2.634e-08
2980.0,4.103e-08
2985.0,2.958e-07
2990.0,1.283e-06
2995.0,1.426e-07
3000.0,3.218e-07
3005.0,9.053e-08
3010.0,3.245e-07
3015.0,1.983e-07
3020.0,1.608e-08
3025.0,2.636e-07
3030.0,2.173e-07
3035.0,7.343e-08
3040.0,5.797e-08
3045.0,1.239e-07
3050.0,2.794e-08
3055.0,6.836e-09
3060.0,1.984e-07
3065.0,8.169e-08
3070.0,4.564e-08
3075.0,1.883e-07
3080.0,1.04e-07
3085.0,4.587e-08
3090.0,6.239e-08
3095.0,1.534e-08
3100.0,1.26e-07
3105.0,2.348e-08
3110.0,1.955e-08
3115.0,5.867e-08
3120.0,3.801e-07
3125.0,3.762e-07
3130.0,2.158e-07
3135.0,7.422e-07
3140.0,9.374e-08
3145.0,9.093e-08
3150.0,2.531e-07
3155.0,2.855e-07
3160.0,8.366e-07
3165.0,4.953e-06
3170.0,6.627e-06
3175.0,4.857e-07
3180.0,2.173e-06
3185.0,2.143e-07
3190.0,1.438e-07
3195.0,6.053e-08
3200.0,8.543e-09
3205.0,5.581e-09
3210.0,2.325e-09
3215.0,9.452e-09
3220.0,3.318e-08
3225.0,3.816e-09
3230.0,6.338e-09
3235.0,1.855e-07
3240.0,8.075e-08
3245.0,1.549e-08
3250.0,5.656e-08
3255.0,3.063e-07
3260.0,2.422e-08
3265.0,5.237e-08
3270.0,2.466e-08
3275.0,1.554e-07
3280.0,6.346e-08
3285.0,1.127e-06
3290.0,2.597e-07
3295.0,2.611e-08
3300.0,3.766e-08
3305.0,8.692e-08
3310.0,8.219e-08
3315.0,1.19e-10
3320.0,7.498e-10
3325.0,6.896e-08
3330.0,2.536e-07
3335.0,4.692e-07
3340.0,6.581e-07
3345.0,7.342e-08
3350.0,1.01e-06
3355.0,7.918e-08
3360.0,1.746e-07
3365.0,1.501e-06
3370.0,7.736e-08
3375.0,6.048e-06
3380.0,1.058e-07
3385.0,3.219e-06
3390.0,1.539e-06
3395.0,5.342e-06
3400.0,4.908e-05
3405.0,8.712e-08
3410.0,5.748e-06
3415.0,2.579e-07
3420.0,9.4e-05
3425.0,3.239e-06
3430.0,6.341e-07
3435.0,6.907e-05
3440.0,4.562e-07
3445.0,4.196e-05
3450.0,1.54e-05
3455.0,2.383e-06
3460.0,0.000113
3465.0,3.443e-06
3470.0,0.0001024
3475.0,2.018e-05
3480.0,2.342e-05
3485.0,8.69e-05
3490.0,1.45e-05
3495.0,8.841e-05
3500.0,7.687e-05
3505.0,7.618e-05
3510.0,8.195e-05
3515.0,8.034e-05
3520.0,0.0001151
3525.0,0.0001157
3530.0,6.464e-05
3535.0,1.313e-05
3540.0,1.006e-05
3545.0,1.087e-05
3550.0,5.966e-05
3555.0,1.952e-05
3560.0,8.219e-05
3565.0,5.131e-05
3570.0,1.693e-05
3575.0,9.655e-06
3580.0,4.994e-05
3585.0,1.725e-05
3590.0,3.693e-05
3595.0,7.654e-05
3600.0,0.0001002
3605.0,5.452e-05
3610.0,4.158e-05
3615.0,7.988e-05
3620.0,0.0002096
3625.0,6.653e-05
3630.0,8.938e-05
3635.0,0.0001033
3640.0,0.0002241
3645.0,8.039e-05
3650.0,9.125e-05
3655.0,0.0001688
3660.0,0.0001958
3665.0,6.661e-05
3670.0,3.445e-05
3675.0,2.095e-06
3680.0,2.553e-05
3685.0,5.747e-05
3690.0,4.778e-05
3695.0,0.0001267
3700.0,0.0002344
3705.0,0.0002093
3710.0,7.679e-05
3715.0,0.000106
3720.0,0.0001842
3725.0,0.0002056
3730.0,0.0001036
3735.0,6.007e-05
3740.0,9.665e-05
3745.0,0.0001914
3750.0,0.0001253
3755.0,0.0001028
3760.0,7.246e-05
3765.0,7.375e-05
3770.0,0.0001146
3775.0,0.0001139
3780.0,0.0001581
3785.0,9.946e-05
3790.0,5.202e-05
3795.0,0.0001237
3800.0,0.0002008
3805.0,0.000154
3810.0,7.72e-05
3815.0,6.884e-05
3820.0,0.0001959
3825.0,0.0001949
3830.0,0.0002028
3835.0,5.335e-05
3840.0,0.000126
3845.0,9.42e-05
3850.0,9.748e-05
3855.0,7.689e-05
3860.0,3.34e-05
3865.0,3.171e-05
3870.0,1.071e-05
3875.0,4.03e-06
3880.0,2.483e-06
3885.0,3.748e-06
3890.0,4.563e-06
3895.0,1.383e-05
3900.0,3.913e-05
3905.0,3.305e-05
3910.0,8.537e-06
3915.0,6.741e-06
3920.0,7.13e-06
3925.0,6.433e-06
3930.0,9.369e-06
3935.0,1.642e-05
3940.0,1.969e-05
3945.0,2.613e-05
3950.0,3.475e-05
3955.0,4.117e-05
3960.0,4.728e-05
3965.0,5.295e-05
3970.0,4.819e-05
3975.0,3.667e-05
3980.0,3.265e-05
3985.0,3.68e-05
3990.0,3.323e-05
3995.0,2.692e-05
4000.0,2.169e-05
