interpolation:linear
wavelength,value
280.0,2.6019999999999998e-23
280.5,9.112e-22
281.0,4.981e-21
281.5,1.682e-19
282.0,1.387e-18
282.5,5.384e-18
283.0,2.411e-17
283.5,4.496e-17
284.0,7.371e-16
284.5,2.083e-15
285.0,6.93e-16
285.5,3.928e-15
286.0,1.633e-14
286.5,7.804e-14
287.0,2.314e-13
287.5,9.286e-13
288.0,2.698e-11
288.5,3.932e-11
289.0,7.866e-11
289.5,2.017e-10
290.0,5.138e-10
290.5,9.908e-10
291.0,2.024e-09
291.5,5.565e-09
292.0,1.093e-08
292.5,1.433e-08
293.0,2.86e-08
293.5,6.446e-08
294.0,9.542e-08
294.5,1.904e-08
295.0,3.175e-08
295.5,5.163e-08
296.0,8.71e-08
296.5,1.073e-07
297.0,1.313e-07
297.5,3.044e-07
298.0,4.248e-07
298.5,3.897e-07
299.0,7.863e-07
299.5,1.12e-06
300.0,1.132e-06
300.5,1.504e-06
301.0,2.375e-06
301.5,3.35e-06
302.0,2.694e-06
302.5,2.601e-06
303.0,4.842e-06
303.5,6.209e-06
304.0,5.849e-06
304.5,8.896e-06
305.0,1.426e-05
305.5,1.718e-05
306.0,1.702e-05
306.5,2.21e-05
307.0,3.651e-05
307.5,5.482e-05
308.0,5.918e-05
308.5,7.48e-05
309.0,7.197e-05
309.5,7.478e-05
310.0,7.385e-05
310.5,0.0001192
311.0,0.0001498
311.5,0.000145
312.0,0.0001498
312.5,0.0001893
313.0,0.0002103
313.5,0.0001998
314.0,0.0002737
314.5,0.0002918
315.0,0.0003968
315.5,0.0003029
316.0,0.0003089
316.5,0.0005102
317.0,0.0006319
317.5,0.0006318
318.0,0.0005433
318.5,0.0008192
319.0,0.001076
319.5,0.000746
320.0,0.0008802
320.5,0.001352
321.0,0.001461
321.5,0.001429
322.0,0.001237
322.5,0.001087
323.0,0.00124
323.5,0.00312
324.0,0.003794
324.5,0.00347
325.0,0.001599
325.5,0.002305
326.0,0.005391
326.5,0.006143
327.0,0.005839
327.5,0.005306
328.0,0.003956
328.5,0.005148
329.0,0.007365
329.5,0.008904
330.0,0.008537
330.5,0.005921
331.0,0.005777
331.5,0.006451
332.0,0.00824
332.5,0.008793
333.0,0.008395
333.5,0.006699
334.0,0.006718
334.5,0.008947
335.0,0.009111
335.5,0.01139
336.0,0.007883
336.5,0.00829
337.0,0.006411
337.5,0.0078
338.0,0.008548
338.5,0.01072
339.0,0.0107
339.5,0.01024
340.0,0.01111
340.5,0.01013
341.0,0.01063
341.5,0.009907
342.0,0.01189
342.5,0.01117
343.0,0.01218
343.5,0.0114
344.0,0.007818
344.5,0.008411
345.0,0.01133
345.5,0.01165
346.0,0.009956
346.5,0.01131
347.0,0.01205
347.5,0.00972
348.0,0.01119
348.5,0.01125
349.0,0.01047
349.5,0.01035
350.0,0.01282
350.5,0.01352
351.0,0.01203
351.5,0.01155
352.0,0.0125
352.5,0.00982
353.0,0.01242
353.5,0.01332
354.0,0.01385
354.5,0.01405
355.0,0.01398
355.5,0.01265
356.0,0.01326
356.5,0.01133
357.0,0.009358
357.5,0.01147
358.0,0.009098
358.5,0.00778
359.0,0.01087
359.5,0.01381
360.0,0.01466
360.5,0.01174
361.0,0.01072
361.5,0.01236
362.0,0.0107
362.5,0.01481
363.0,0.01331
363.5,0.01226
364.0,0.015
364.5,0.01282
365.0,0.01306
365.5,0.0164
366.0,0.01739
366.5,0.01635
367.0,0.01593
367.5,0.01653
368.0,0.01447
368.5,0.0146
369.0,0.01577
369.5,0.01682
370.0,0.01794
370.5,0.01393
371.0,0.01489
371.5,0.01863
372.0,0.01237
372.5,0.01484
373.0,0.0151
373.5,0.009824
374.0,0.01428
374.5,0.01183
375.0,0.0115
375.5,0.01718
376.0,0.01425
376.5,0.01477
377.0,0.01564
377.5,0.0183
378.0,0.01985
378.5,0.01876
379.0,0.01549
379.5,0.01415
380.0,0.01472
380.5,0.01783
381.0,0.01787
381.5,0.01417
382.0,0.01259
382.5,0.01074
383.0,0.009941
383.5,0.009579
384.0,0.01057
384.5,0.01555
385.0,0.01543
385.5,0.01437
386.0,0.01231
386.5,0.01617
387.0,0.01344
387.5,0.0151
388.0,0.01395
388.5,0.01379
389.0,0.01489
389.5,0.01804
390.0,0.01811
390.5,0.01667
391.0,0.01963
391.5,0.02003
392.0,0.01687
392.5,0.01511
393.0,0.00841
393.5,0.006115
394.0,0.01245
394.5,0.01583
395.0,0.01932
395.5,0.01963
396.0,0.01702
396.5,0.009955
397.0,0.007474
397.5,0.0152
398.0,0.0213
398.5,0.02202
399.0,0.02385
399.5,0.02378
400.0,0.0247
401.0,0.02439
402.0,0.02574
403.0,0.02446
404.0,0.0241
405.0,0.0241
406.0,0.02372
407.0,0.02333
408.0,0.02423
409.0,0.02593
410.0,0.02266
411.0,0.02456
412.0,0.02639
413.0,0.02575
414.0,0.02607
415.0,0.02613
416.0,0.02658
417.0,0.02592
418.0,0.02545
419.0,0.02579
420.0,0.02569
421.0,0.02686
422.0,0.02552
423.0,0.0249
424.0,0.02631
425.0,0.02624
426.0,0.02556
427.0,0.0251
428.0,0.02448
429.0,0.0232
430.0,0.02031
431.0,0.02011
432.0,0.02594
433.0,0.02606
434.0,0.0242
435.0,0.02529
436.0,0.0285
437.0,0.0281
438.0,0.02555
439.0,0.02636
440.0,0.02715
441.0,0.02807
442.0,0.03005
443.0,0.02926
444.0,0.02992
445.0,0.02933
446.0,0.02804
447.0,0.03034
448.0,0.03078
449.0,0.03083
450.0,0.03164
451.0,0.03278
452.0,0.0316
453.0,0.02973
454.0,0.03105
455.0,0.03117
456.0,0.03185
457.0,0.03227
458.0,0.03104
459.0,0.03074
460.0,0.03069
461.0,0.03131
462.0,0.03155
463.0,0.03139
464.0,0.03098
465.0,0.03068
466.0,0.03101
467.0,0.03041
468.0,0.03069
469.0,0.03075
470.0,0.02971
471.0,0.02967
472.0,0.03127
473.0,0.03086
474.0,0.03087
475.0,0.03103
476.0,0.02994
477.0,0.02985
478.0,0.03049
479.0,0.03009
480.0,0.02995
481.0,0.03035
482.0,0.03044
483.0,0.03009
484.0,0.02955
485.0,0.02827
486.0,0.0248
487.0,0.02604
488.0,0.02855
489.0,0.02857
490.0,0.02997
491.0,0.02937
492.0,0.0277
493.0,0.02859
494.0,0.02886
495.0,0.02908
496.0,0.02918
497.0,0.02949
498.0,0.02793
499.0,0.02807
500.0,0.02704
501.0,0.02632
502.0,0.0257
503.0,0.02651
504.0,0.02565
505.0,0.02651
506.0,0.02735
507.0,0.02605
508.0,0.02531
509.0,0.02611
510.0,0.02604
511.0,0.02676
512.0,0.02704
513.0,0.02553
514.0,0.02528
515.0,0.02495
516.0,0.02481
517.0,0.022
518.0,0.02307
519.0,0.02414
520.0,0.02494
521.0,0.02507
522.0,0.02496
523.0,0.02442
524.0,0.02511
525.0,0.0252
526.0,0.02391
527.0,0.02234
528.0,0.02345
529.0,0.02455
530.0,0.02405
531.0,0.02427
532.0,0.02334
533.0,0.02261
534.0,0.02326
535.0,0.02378
536.0,0.02402
537.0,0.02308
538.0,0.02346
539.0,0.02321
540.0,0.02217
541.0,0.02217
542.0,0.02276
543.0,0.02247
544.0,0.02273
545.0,0.02259
546.0,0.0226
547.0,0.02257
548.0,0.02229
549.0,0.02232
550.0,0.02254
551.0,0.02223
552.0,0.02234
553.0,0.02188
554.0,0.02234
555.0,0.0223
556.0,0.02192
557.0,0.02113
558.0,0.02083
559.0,0.0203
560.0,0.02041
561.0,0.02052
562.0,0.02022
563.0,0.02062
564.0,0.01994
565.0,0.01966
566.0,0.01927
567.0,0.0195
568.0,0.01913
569.0,0.01854
570.0,0.01843
571.0,0.01824
572.0,0.01853
573.0,0.01865
574.0,0.01852
575.0,0.01811
576.0,0.01793
577.0,0.01815
578.0,0.01795
579.0,0.01814
580.0,0.01867
581.0,0.01893
582.0,0.01942
583.0,0.01957
584.0,0.01982
585.0,0.01938
586.0,0.019
587.0,0.01934
588.0,0.01878
589.0,0.01605
590.0,0.0167
591.0,0.01792
592.0,0.01746
593.0,0.01792
594.0,0.01758
595.0,0.01702
596.0,0.01804
597.0,0.01751
598.0,0.01747
599.0,0.01757
600.0,0.01753
601.0,0.0174
602.0,0.01729
603.0,0.01764
604.0,0.01799
605.0,0.01797
606.0,0.01797
607.0,0.01823
608.0,0.01813
609.0,0.01826
610.0,0.01824
611.0,0.01844
612.0,0.01849
613.0,0.01836
614.0,0.0182
615.0,0.01868
616.0,0.01814
617.0,0.01817
618.0,0.01893
619.0,0.01878
620.0,0.01893
621.0,0.01897
622.0,0.01876
623.0,0.01848
624.0,0.01814
625.0,0.01808
626.0,0.01831
627.0,0.01837
628.0,0.01563
629.0,0.01724
630.0,0.01682
631.0,0.01774
632.0,0.01777
633.0,0.01855
634.0,0.01863
635.0,0.01911
636.0,0.019
637.0,0.01949
638.0,0.01987
639.0,0.01978
640.0,0.01977
641.0,0.01988
642.0,0.01995
643.0,0.02032
644.0,0.02037
645.0,0.02029
646.0,0.01976
647.0,0.0188
648.0,0.01881
649.0,0.01837
650.0,0.01927
651.0,0.02031
652.0,0.01871
653.0,0.02024
654.0,0.02028
655.0,0.01878
656.0,0.01692
657.0,0.01768
658.0,0.01996
659.0,0.02053
660.0,0.02062
661.0,0.02099
662.0,0.02126
663.0,0.02093
664.0,0.02121
665.0,0.02127
666.0,0.02139
667.0,0.02146
668.0,0.02162
669.0,0.02201
670.0,0.02199
671.0,0.02207
672.0,0.02196
673.0,0.02236
674.0,0.02234
675.0,0.02221
676.0,0.02242
677.0,0.02227
678.0,0.02239
679.0,0.02208
680.0,0.02229
681.0,0.02214
682.0,0.02211
683.0,0.02205
684.0,0.02188
685.0,0.0222
686.0,0.0219
687.0,0.01001
688.0,0.0118
689.0,0.01185
690.0,0.01261
691.0,0.01382
692.0,0.01529
693.0,0.01543
694.0,0.01586
695.0,0.01777
696.0,0.0179
697.0,0.02154
698.0,0.02039
699.0,0.01847
700.0,0.01827
701.0,0.01746
702.0,0.01781
703.0,0.01849
704.0,0.01967
705.0,0.01977
706.0,0.02007
707.0,0.02008
708.0,0.0208
709.0,0.02129
710.0,0.02041
711.0,0.02075
712.0,0.02127
713.0,0.0203
714.0,0.02075
715.0,0.0195
716.0,0.01889
717.0,0.01292
718.0,0.01233
719.0,0.01172
720.0,0.01153
721.0,0.01405
722.0,0.01662
723.0,0.01544
724.0,0.01353
725.0,0.0128
726.0,0.01253
727.0,0.01471
728.0,0.01191
729.0,0.01334
730.0,0.01338
731.0,0.0128
732.0,0.01473
733.0,0.01671
734.0,0.01787
735.0,0.01731
736.0,0.01653
737.0,0.01703
738.0,0.01911
739.0,0.01873
740.0,0.01987
741.0,0.01993
742.0,0.02044
743.0,0.0209
744.0,0.02091
745.0,0.02123
746.0,0.02132
747.0,0.02144
748.0,0.02142
749.0,0.02121
750.0,0.02121
751.0,0.02099
752.0,0.02112
753.0,0.02127
754.0,0.02128
755.0,0.02111
756.0,0.02116
757.0,0.02116
758.0,0.0208
759.0,0.01838
760.0,0.001942
761.0,0.001037
762.0,0.005698
763.0,0.002901
764.0,0.004294
765.0,0.005646
766.0,0.006874
767.0,0.008919
768.0,0.0126
769.0,0.01435
770.0,0.01748
771.0,0.01924
772.0,0.01985
773.0,0.02014
774.0,0.02016
775.0,0.02009
776.0,0.02038
777.0,0.02012
778.0,0.01995
779.0,0.01997
780.0,0.01988
781.0,0.01991
782.0,0.02006
783.0,0.01974
784.0,0.01989
785.0,0.01969
786.0,0.01967
787.0,0.01821
788.0,0.018
789.0,0.01742
790.0,0.01573
791.0,0.01685
792.0,0.017
793.0,0.0166
794.0,0.01861
795.0,0.01833
796.0,0.01581
797.0,0.0168
798.0,0.01858
799.0,0.01778
800.0,0.0164
801.0,0.01586
802.0,0.01634
803.0,0.01544
804.0,0.01608
805.0,0.01662
806.0,0.01829
807.0,0.01743
808.0,0.0175
809.0,0.0161
810.0,0.01587
811.0,0.01385
812.0,0.01308
813.0,0.0124
814.0,0.00949
815.0,0.009302
816.0,0.01003
817.0,0.01005
818.0,0.009894
819.0,0.01045
820.0,0.01153
821.0,0.01324
822.0,0.01197
823.0,0.005873
824.0,0.01119
825.0,0.01476
826.0,0.01145
827.0,0.01343
828.0,0.00922
829.0,0.01274
830.0,0.01235
831.0,0.01212
832.0,0.01167
833.0,0.01207
834.0,0.01133
835.0,0.01454
836.0,0.01277
837.0,0.01438
838.0,0.01306
839.0,0.01516
840.0,0.01593
841.0,0.01513
842.0,0.0156
843.0,0.01659
844.0,0.0158
845.0,0.01688
846.0,0.01721
847.0,0.01709
848.0,0.0166
849.0,0.01606
850.0,0.01535
851.0,0.01561
852.0,0.01596
853.0,0.01567
854.0,0.01341
855.0,0.01487
856.0,0.01624
857.0,0.01683
858.0,0.01662
859.0,0.01695
860.0,0.01708
861.0,0.01696
862.0,0.01727
863.0,0.01765
864.0,0.01682
865.0,0.01671
866.0,0.01502
867.0,0.01568
868.0,0.01707
869.0,0.01674
870.0,0.01723
871.0,0.01696
872.0,0.01694
873.0,0.01691
874.0,0.01671
875.0,0.01631
876.0,0.01648
877.0,0.01661
878.0,0.01678
879.0,0.01651
880.0,0.01609
881.0,0.01569
882.0,0.0158
883.0,0.01606
884.0,0.01589
885.0,0.01578
886.0,0.01421
887.0,0.01519
888.0,0.01494
889.0,0.01595
890.0,0.01475
891.0,0.01558
892.0,0.01326
893.0,0.01244
894.0,0.01018
895.0,0.008239
896.0,0.007996
897.0,0.006953
898.0,0.007449
899.0,0.00456
900.0,0.006862
901.0,0.004801
902.0,0.005083
903.0,0.00602
904.0,0.009692
905.0,0.008666
906.0,0.008144
907.0,0.005579
908.0,0.006348
909.0,0.006136
910.0,0.00434
911.0,0.005387
912.0,0.007801
913.0,0.004496
914.0,0.006125
915.0,0.004397
916.0,0.00489
917.0,0.005446
918.0,0.004501
919.0,0.005953
920.0,0.007607
921.0,0.007254
922.0,0.005684
923.0,0.007225
924.0,0.005354
925.0,0.005163
926.0,0.005119
927.0,0.005993
928.0,0.003141
929.0,0.002685
930.0,0.002011
931.0,0.001891
932.0,0.001348
933.0,0.001087
934.0,0.0005901
935.0,0.001106
936.0,0.000685
937.0,0.0006909
938.0,0.000847
939.0,0.001776
940.0,0.002155
941.0,0.00159
942.0,0.001839
943.0,0.001196
944.0,0.00126
945.0,0.001614
946.0,0.0008115
947.0,0.001608
948.0,0.001179
949.0,0.002155
950.0,0.0005871
951.0,0.002119
952.0,0.001148
953.0,0.001461
954.0,0.001786
955.0,0.001614
956.0,0.001461
957.0,0.001137
958.0,0.002153
959.0,0.001636
960.0,0.001889
961.0,0.002206
962.0,0.002053
963.0,0.002681
964.0,0.002366
965.0,0.002472
966.0,0.002837
967.0,0.003073
968.0,0.007244
969.0,0.004912
970.0,0.006057
971.0,0.006473
972.0,0.006799
973.0,0.004094
974.0,0.003788
975.0,0.004867
976.0,0.004483
977.0,0.00665
978.0,0.004663
979.0,0.005626
980.0,0.0055
981.0,0.006904
982.0,0.005986
983.0,0.005557
984.0,0.008724
985.0,0.0057
986.0,0.01108
987.0,0.008443
988.0,0.009075
989.0,0.01167
990.0,0.008263
991.0,0.01156
992.0,0.01188
993.0,0.009644
994.0,0.01209
995.0,0.01241
996.0,0.01207
997.0,0.01212
998.0,0.01195
999.0,0.01201
1000.0,0.01179
1001.0,0.01217
1002.0,0.01001
1003.0,0.01197
1004.0,0.01093
1005.0,0.01111
1006.0,0.01153
1007.0,0.01174
1008.0,0.01141
1009.0,0.01096
1010.0,0.0109
1011.0,0.01154
1012.0,0.01135
1013.0,0.01176
1014.0,0.01169
1015.0,0.01163
1016.0,0.01145
1017.0,0.01134
1018.0,0.01157
1019.0,0.01048
1020.0,0.01145
1021.0,0.01153
1022.0,0.0112
1023.0,0.01131
1024.0,0.01037
1025.0,0.01147
1026.0,0.0111
1027.0,0.01137
1028.0,0.01116
1029.0,0.01086
1030.0,0.01117
1031.0,0.01118
1032.0,0.01106
1033.0,0.01098
1034.0,0.01093
1035.0,0.01098
1036.0,0.01087
1037.0,0.01077
1038.0,0.01076
1039.0,0.01068
1040.0,0.01061
1041.0,0.01055
1042.0,0.01047
1043.0,0.01037
1044.0,0.01034
1045.0,0.01013
1046.0,0.009952
1047.0,0.009961
1048.0,0.009928
1049.0,0.009809
1050.0,0.009668
1051.0,0.009546
1052.0,0.009404
1053.0,0.009203
1054.0,0.00909
1055.0,0.008942
1056.0,0.008739
1057.0,0.008594
1058.0,0.008257
1059.0,0.008108
1060.0,0.008033
1061.0,0.007935
1062.0,0.007917
1063.0,0.007653
1064.0,0.007788
1065.0,0.007415
1066.0,0.007493
1067.0,0.007567
1068.0,0.007211
1069.0,0.007172
1070.0,0.007501
1071.0,0.007943
1072.0,0.007551
1073.0,0.007534
1074.0,0.008279
1075.0,0.006461
1076.0,0.008358
1077.0,0.007369
1078.0,0.006641
1079.0,0.008564
1080.0,0.007147
1081.0,0.006143
1082.0,0.007672
1083.0,0.007938
1084.0,0.006199
1085.0,0.007394
1086.0,0.005708
1087.0,0.006075
1088.0,0.007795
1089.0,0.006006
1090.0,0.005718
1091.0,0.007099
1092.0,0.007423
1093.0,0.00412
1094.0,0.006273
1095.0,0.003873
1096.0,0.003371
1097.0,0.007467
1098.0,0.003342
1099.0,0.003221
1100.0,0.002551
1101.0,0.00285
1102.0,0.002422
1103.0,0.002001
1104.0,0.002333
1105.0,0.002637
1106.0,0.001237
1107.0,0.002483
1108.0,0.001375
1109.0,0.001498
1110.0,0.001811
1111.0,0.0009001
1112.0,0.001662
1113.0,0.000688
1114.0,0.0007623
1115.0,0.0006181
1116.0,0.0004732
1117.0,0.0001702
1118.0,0.0005127
1119.0,0.0002508
1120.0,0.0003145
1121.0,0.0004175
1122.0,0.000173
1123.0,0.0002815
1124.0,0.0002368
1125.0,0.0003084
1126.0,0.0001049
1127.0,0.0003458
1128.0,0.0002039
1129.0,0.0002159
1130.0,0.0001407
1131.0,0.0006529
1132.0,0.0005094
1133.0,0.0003187
1134.0,7.942e-05
1135.0,2.976e-05
1136.0,0.0002621
1137.0,0.0006276
1138.0,0.0004401
1139.0,0.0006641
1140.0,0.0005484
1141.0,0.0004143
1142.0,0.0004763
1143.0,0.000677
1144.0,0.0002328
1145.0,0.0002955
1146.0,0.0003176
1147.0,0.0001092
1148.0,0.0005766
1149.0,0.0004564
1150.0,0.0002458
1151.0,0.0004185
1152.0,0.0005162
1153.0,0.0005054
1154.0,0.0002781
1155.0,0.0006637
1156.0,0.0005993
1157.0,0.0007142
1158.0,0.0006871
1159.0,0.0007662
1160.0,0.0006837
1161.0,0.001178
1162.0,0.001485
1163.0,0.002137
1164.0,0.002013
1165.0,0.001193
1166.0,0.001957
1167.0,0.002002
1168.0,0.001871
1169.0,0.002154
1170.0,0.002912
1171.0,0.002446
1172.0,0.003977
1173.0,0.002557
1174.0,0.001254
1175.0,0.003211
1176.0,0.005498
1177.0,0.003703
1178.0,0.001982
1179.0,0.005122
1180.0,0.004319
1181.0,0.002878
1182.0,0.00117
1183.0,0.003052
1184.0,0.003747
1185.0,0.002774
1186.0,0.003784
1187.0,0.002755
1188.0,0.001234
1189.0,0.002944
1190.0,0.004147
1191.0,0.00269
1192.0,0.00433
1193.0,0.004783
1194.0,0.004101
1195.0,0.002886
1196.0,0.002356
1197.0,0.004075
1198.0,0.00392
1199.0,0.001802
1200.0,0.003369
1201.0,0.00256
1202.0,0.003655
1203.0,0.002578
1204.0,0.003784
1205.0,0.004766
1206.0,0.005539
1207.0,0.003161
1208.0,0.003571
1209.0,0.003858
1210.0,0.00504
1211.0,0.004144
1212.0,0.00244
1213.0,0.004532
1214.0,0.002869
1215.0,0.002563
1216.0,0.00506
1217.0,0.004507
1218.0,0.00496
1219.0,0.004663
1220.0,0.004952
1221.0,0.00543
1222.0,0.005027
1223.0,0.004797
1224.0,0.004291
1225.0,0.00485
1226.0,0.005647
1227.0,0.003735
1228.0,0.006388
1229.0,0.005501
1230.0,0.00519
1231.0,0.006751
1232.0,0.006716
1233.0,0.004346
1234.0,0.007218
1235.0,0.006717
1236.0,0.007131
1237.0,0.006097
1238.0,0.007109
1239.0,0.007043
1240.0,0.007178
1241.0,0.006687
1242.0,0.007015
1243.0,0.00703
1244.0,0.006811
1245.0,0.007004
1246.0,0.007002
1247.0,0.006726
1248.0,0.00649
1249.0,0.006721
1250.0,0.006446
1251.0,0.005934
1252.0,0.006518
1253.0,0.00547
1254.0,0.004933
1255.0,0.006301
1256.0,0.004485
1257.0,0.004169
1258.0,0.005378
1259.0,0.00326
1260.0,0.003482
1261.0,0.001918
1262.0,0.001436
1263.0,0.001439
1264.0,0.0008405
1265.0,0.001418
1266.0,0.001028
1267.0,0.001268
1268.0,0.0008962
1269.0,0.0003512
1270.0,0.001152
1271.0,0.002055
1272.0,0.002113
1273.0,0.00197
1274.0,0.002205
1275.0,0.002385
1276.0,0.002757
1277.0,0.003232
1278.0,0.003983
1279.0,0.004016
1280.0,0.004218
1281.0,0.004551
1282.0,0.004943
1283.0,0.005147
1284.0,0.005459
1285.0,0.005501
1286.0,0.005878
1287.0,0.005585
1288.0,0.005568
1289.0,0.003638
1290.0,0.005592
1291.0,0.005981
1292.0,0.003052
1293.0,0.005359
1294.0,0.004981
1295.0,0.003645
1296.0,0.002841
1297.0,0.002422
1298.0,0.003536
1299.0,0.005002
1300.0,0.001969
1301.0,0.001859
1302.0,0.003475
1303.0,0.002982
1304.0,0.0009744
1305.0,0.003051
1306.0,0.002431
1307.0,0.001417
1308.0,0.00221
1309.0,0.002182
1310.0,0.001539
1311.0,0.002543
1312.0,0.001775
1313.0,0.001373
1314.0,0.0007022
1315.0,0.0006889
1316.0,0.002011
1317.0,0.002471
1318.0,0.002599
1319.0,0.0009754
1320.0,0.0006803
1321.0,0.001181
1322.0,0.0007154
1323.0,0.0003758
1324.0,0.0009318
1325.0,0.001096
1326.0,0.0008331
1327.0,0.000658
1328.0,0.0003598
1329.0,0.0002276
1330.0,0.0003034
1331.0,0.0001768
1332.0,0.0001788
1333.0,0.0002505
1334.0,0.0002325
1335.0,0.0003038
1336.0,0.0002327
1337.0,0.0002083
1338.0,0.0002189
1339.0,0.0002185
1340.0,0.0002124
1341.0,0.0002023
1342.0,0.0002124
1343.0,0.0001423
1344.0,8.502e-05
1345.0,0.0001223
1346.0,6.032e-05
1347.0,6.111e-05
1348.0,3.94e-06
1349.0,1.413e-05
1350.0,1.465e-05
1351.0,3.542e-06
1352.0,9.53e-07
1353.0,4.85e-08
1354.0,1.667e-07
1355.0,1.342e-09
1356.0,2.349e-08
1357.0,3.57e-08
1358.0,1.576e-09
1359.0,1.986e-10
1360.0,7.178e-10
1361.0,8.03e-13
1362.0,2.197e-15
1363.0,9.654e-10
1364.0,3.986e-10
1365.0,7.672e-16
1366.0,4.185e-09
1367.0,1.708e-09
1368.0,5.925e-18
1369.0,1.469e-10
1370.0,7.237e-11
1371.0,4.102e-12
1372.0,9.268e-10
1373.0,1.868e-08
1374.0,8.661e-08
1375.0,1.571e-07
1376.0,1.409e-07
1377.0,6.437e-08
1378.0,6.294e-07
1379.0,2.69e-08
1380.0,3.866e-08
1381.0,1.007e-09
1382.0,8.129e-10
1383.0,1.215e-11
1384.0,1.594e-10
1385.0,7.622e-10
1386.0,7.169e-10
1387.0,8.672e-08
1388.0,1.706e-09
1389.0,2.928e-07
1390.0,2.513e-07
1391.0,1.672e-07
1392.0,1.084e-08
1393.0,5.741e-08
1394.0,2.959e-08
1395.0,2.169e-10
1396.0,1.048e-12
1397.0,2.261e-08
1398.0,6.686e-07
1399.0,4.23e-07
1400.0,4.483e-13
1401.0,1.86e-12
1402.0,1.172e-06
1403.0,1.468e-06
1404.0,4.46e-07
1405.0,1.028e-10
1406.0,1.153e-06
1407.0,1.016e-07
1408.0,9.381e-07
1409.0,3.127e-07
1410.0,2.504e-07
1411.0,1.263e-06
1412.0,1.704e-06
1413.0,1.773e-05
1414.0,1.955e-07
1415.0,9.338e-08
1416.0,2.931e-05
1417.0,8.656e-06
1418.0,9.802e-06
1419.0,1.509e-06
1420.0,5.958e-06
1421.0,6.427e-06
1422.0,3.769e-05
1423.0,7.229e-06
1424.0,1.357e-05
1425.0,1.982e-05
1426.0,2.269e-05
1427.0,4.22e-05
1428.0,2.954e-06
1429.0,3.108e-05
1430.0,5.363e-05
1431.0,5.897e-05
1432.0,2.296e-06
1433.0,3.7e-05
1434.0,1.862e-05
1435.0,1.804e-05
1436.0,3.553e-05
1437.0,2.717e-05
1438.0,1.121e-05
1439.0,4.83e-05
1440.0,3.606e-05
1441.0,2.697e-05
1442.0,2.988e-05
1443.0,3.811e-05
1444.0,5.306e-05
1445.0,4.077e-05
1446.0,1.808e-05
1447.0,2.85e-05
1448.0,0.000101
1449.0,8.677e-05
1450.0,2.101e-05
1451.0,8.271e-06
1452.0,5.108e-05
1453.0,6.732e-05
1454.0,0.0001185
1455.0,5.452e-05
1456.0,7.267e-05
1457.0,9.905e-05
1458.0,0.0001189
1459.0,0.0001396
1460.0,7.15e-05
1461.0,7.345e-05
1462.0,0.0001091
1463.0,3.421e-05
1464.0,0.0001303
1465.0,7.8e-05
1466.0,5.159e-05
1467.0,2.64e-05
1468.0,6.107e-05
1469.0,7.576e-05
1470.0,3.64e-05
1471.0,1.291e-05
1472.0,3.46e-05
1473.0,5.379e-05
1474.0,8.002e-05
1475.0,0.0001539
1476.0,5.352e-05
1477.0,5.344e-05
1478.0,4.993e-05
1479.0,9.742e-05
1480.0,4.577e-05
1481.0,9.212e-05
1482.0,4.477e-05
1483.0,0.0001201
1484.0,0.0001153
1485.0,9.944e-05
1486.0,9.691e-05
1487.0,4.319e-05
1488.0,7.821e-05
1489.0,0.0001581
1490.0,0.0001819
1491.0,0.0002192
1492.0,0.0001378
1493.0,0.000179
1494.0,0.000311
1495.0,0.0002192
1496.0,0.0001789
1497.0,0.0006621
1498.0,0.0004348
1499.0,0.00038
1500.0,0.001252
1501.0,0.001085
1502.0,0.001132
1503.0,0.0004756
1504.0,0.0001376
1505.0,0.0003872
1506.0,0.00157
1507.0,0.001408
1508.0,0.001582
1509.0,0.0006306
1510.0,0.001918
1511.0,0.001256
1512.0,0.002036
1513.0,0.0008441
1514.0,0.0007718
1515.0,0.002314
1516.0,0.002046
1517.0,0.00126
1518.0,0.001726
1519.0,0.001134
1520.0,0.001687
1521.0,0.003727
1522.0,0.002264
1523.0,0.003859
1524.0,0.002762
1525.0,0.001811
1526.0,0.002062
1527.0,0.002398
1528.0,0.003434
1529.0,0.002848
1530.0,0.002304
1531.0,0.002646
1532.0,0.003977
1533.0,0.00426
1534.0,0.004438
1535.0,0.003892
1536.0,0.004018
1537.0,0.004527
1538.0,0.004276
1539.0,0.004131
1540.0,0.004268
1541.0,0.004162
1542.0,0.003995
1543.0,0.004317
1544.0,0.004177
1545.0,0.004432
1546.0,0.003919
1547.0,0.004179
1548.0,0.004203
1549.0,0.004461
1550.0,0.004317
1551.0,0.00416
1552.0,0.004254
1553.0,0.004322
1554.0,0.00414
1555.0,0.004315
1556.0,0.004209
1557.0,0.004322
1558.0,0.004326
1559.0,0.004281
1560.0,0.004215
1561.0,0.004273
1562.0,0.004138
1563.0,0.004049
1564.0,0.004012
1565.0,0.004325
1566.0,0.004083
1567.0,0.004136
1568.0,0.004033
1569.0,0.004262
1570.0,0.004231
1571.0,0.004219
1572.0,0.004208
1573.0,0.004067
1574.0,0.00381
1575.0,0.003717
1576.0,0.003346
1577.0,0.003221
1578.0,0.003239
1579.0,0.003008
1580.0,0.003141
1581.0,0.003111
1582.0,0.003123
1583.0,0.003045
1584.0,0.003608
1585.0,0.00376
1586.0,0.003694
1587.0,0.003556
1588.0,0.003902
1589.0,0.003832
1590.0,0.003747
1591.0,0.003943
1592.0,0.003848
1593.0,0.004074
1594.0,0.003995
1595.0,0.00401
1596.0,0.0038
1597.0,0.003635
1598.0,0.004045
1599.0,0.004054
1600.0,0.004133
1601.0,0.003913
1602.0,0.003792
1603.0,0.004109
1604.0,0.004045
1605.0,0.004095
1606.0,0.004025
1607.0,0.004078
1608.0,0.00375
1609.0,0.003904
1610.0,0.003786
1611.0,0.003858
1612.0,0.004
1613.0,0.003807
1614.0,0.003937
1615.0,0.003867
1616.0,0.003813
1617.0,0.003648
1618.0,0.003949
1619.0,0.003605
1620.0,0.003828
1621.0,0.003781
1622.0,0.003818
1623.0,0.00391
1624.0,0.003712
1625.0,0.003645
1626.0,0.003657
1627.0,0.003772
1628.0,0.003613
1629.0,0.003722
1630.0,0.003619
1631.0,0.003289
1632.0,0.003507
1633.0,0.002721
1634.0,0.003536
1635.0,0.002686
1636.0,0.003171
1637.0,0.003369
1638.0,0.002022
1639.0,0.003278
1640.0,0.001888
1641.0,0.003045
1642.0,0.003428
1643.0,0.001498
1644.0,0.00361
1645.0,0.002253
1646.0,0.001446
1647.0,0.003568
1648.0,0.001471
1649.0,0.002985
1650.0,0.00315
1651.0,0.001177
1652.0,0.002822
1653.0,0.003361
1654.0,0.001569
1655.0,0.00314
1656.0,0.002378
1657.0,0.00271
1658.0,0.003418
1659.0,0.003152
1660.0,0.00314
1661.0,0.003275
1662.0,0.002517
1663.0,0.003347
1664.0,0.003245
1665.0,0.001512
1666.0,0.0001802
1667.0,0.001548
1668.0,0.002847
1669.0,0.002994
1670.0,0.003316
1671.0,0.00288
1672.0,0.003175
1673.0,0.003289
1674.0,0.002551
1675.0,0.002738
1676.0,0.003143
1677.0,0.002637
1678.0,0.002058
1679.0,0.003228
1680.0,0.002757
1681.0,0.002061
1682.0,0.003158
1683.0,0.003269
1684.0,0.001136
1685.0,0.003209
1686.0,0.003198
1687.0,0.002081
1688.0,0.00292
1689.0,0.003017
1690.0,0.002717
1691.0,0.001251
1692.0,0.002436
1693.0,0.003203
1694.0,0.00217
1695.0,0.002892
1696.0,0.003139
1697.0,0.0007874
1698.0,0.002717
1699.0,0.00282
1700.0,0.002278
1702.0,0.002697
1705.0,0.002086
1710.0,0.00183
1715.0,0.002142
1720.0,0.002252
1725.0,0.001192
1730.0,0.001913
1735.0,0.001412
1740.0,0.001574
1745.0,0.001863
1750.0,0.0008965
1755.0,0.001226
1760.0,0.0007501
1765.0,0.0006475
1770.0,0.0004526
1775.0,0.000361
1780.0,0.0001997
1785.0,8.097e-05
1790.0,5.162e-05
1795.0,1.641e-05
1800.0,1.129e-05
1805.0,4.484e-06
1810.0,2.911e-06
1815.0,8.422e-07
1820.0,2.107e-07
1825.0,2.75e-07
1830.0,6.703e-10
1835.0,1.015e-09
1840.0,5.923e-12
1845.0,6.333e-10
1850.0,2.859e-10
1855.0,2.733e-11
1860.0,1.566e-09
1865.0,2.183e-09
1870.0,1.195e-14
1875.0,2.159e-14
1880.0,1.15e-08
1885.0,6.127e-09
1890.0,3.361e-08
1895.0,1.95e-08
1900.0,8.336e-11
1905.0,5.678e-11
1910.0,2.75e-09
1915.0,2.679e-09
1920.0,7.028e-08
1925.0,1.651e-07
1930.0,9.536e-08
1935.0,7.269e-07
1940.0,7.219e-07
1945.0,2.974e-06
1950.0,5.784e-06
1955.0,5.156e-06
1960.0,9.076e-06
1965.0,8.53e-05
1970.0,0.0001535
1975.0,0.0001867
1980.0,6.934e-05
1985.0,0.00012
1990.0,0.0004159
1995.0,0.0003293
2000.0,0.0005642
2005.0,0.0002684
2010.0,0.001134
2015.0,0.0002455
2020.0,0.0004767
2025.0,0.0008685
2030.0,0.0005517
2035.0,0.001118
2040.0,0.0008058
2045.0,0.0008946
2050.0,0.001326
2055.0,0.000881
2060.0,0.0007608
2065.0,0.001055
2070.0,0.0008969
2075.0,0.00125
2080.0,0.001287
2085.0,0.001273
2090.0,0.001333
2095.0,0.001189
2100.0,0.000834
2105.0,0.001199
2110.0,0.0008936
2115.0,0.001219
2120.0,0.0008235
2125.0,0.001051
2130.0,0.001251
2135.0,0.001329
2140.0,0.001363
2145.0,0.001346
2150.0,0.0007967
2155.0,0.0007695
2160.0,0.0008521
2165.0,0.0007123
2170.0,0.0009421
2175.0,0.0006869
2180.0,0.0008841
2185.0,0.0005575
2190.0,0.0008202
2195.0,0.0007471
2200.0,0.0001721
2205.0,0.0004743
2210.0,0.00103
2215.0,0.000689
2220.0,0.0007882
2225.0,0.0006543
2230.0,0.0006675
2235.0,0.0005561
2240.0,0.0005343
2245.0,0.000332
2250.0,0.0005215
2255.0,0.0002198
2260.0,0.0001947
2265.0,0.0003199
2270.0,0.0001391
2275.0,0.0001229
2280.0,0.000303
2285.0,0.0001257
2290.0,0.0001356
2295.0,0.0001222
2300.0,6.096e-05
2305.0,7.363e-05
2310.0,0.000331
2315.0,7.746e-05
2320.0,2.824e-05
2325.0,0.0001815
2330.0,0.0001006
2335.0,0.0001383
2340.0,2.246e-05
2345.0,2.959e-05
2350.0,1.837e-05
2355.0,2.311e-05
2360.0,3.142e-05
2365.0,9.629e-05
2370.0,3.949e-06
2375.0,2.03e-05
2380.0,5.283e-05
2385.0,7.555e-06
2390.0,9.119e-06
2395.0,1.189e-05
2400.0,1.37e-05
2405.0,2.109e-05
2410.0,1.779e-05
2415.0,3.948e-06
2420.0,3.376e-06
2425.0,4.452e-06
2430.0,8.288e-06
2435.0,1.598e-06
2440.0,8.635e-06
2445.0,2.27e-06
2450.0,1.403e-06
2455.0,4.483e-06
2460.0,3.655e-06
2465.0,2.503e-06
2470.0,1.648e-06
2475.0,1.598e-06
2480.0,7.491e-07
2485.0,4.862e-07
2490.0,2.796e-07
2495.0,2.419e-07
2500.0,6.001e-07
2505.0,1.22e-07
2510.0,1.795e-07
2515.0,3.886e-08
2520.0,2.136e-08
2525.0,2.436e-09
2530.0,1.696e-11
2535.0,3.751e-12
2540.0,8.899e-12
2545.0,6.901e-16
2550.0,2.798e-18
2555.0,1.343e-14
2560.0,4.031e-16
2565.0,9.024e-20
2570.0,2.687e-24
2575.0,1.7e-34
2580.0,1.772e-28
2585.0,3.705e-42
2590.0,2.311e-38
2595.0,4.497e-40
2600.0,3.702e-35
2605.0,4.0920000000000004e-42
2610.0,1.4089999999999998e-41
2615.0,1.4009999999999999e-45
2620.0,1.241e-35
2625.0,2.2730000000000002e-35
2630.0,0.0
2635.0,1.184e-21
2640.0,2.562e-22
2645.0,1.117e-24
2650.0,1.113e-25
2655.0,1.338e-34
2660.0,1.127e-31
2665.0,1.121e-44
2670.0,0.0
2675.0,5.464999999999999e-44
2680.0,2.284e-30
2685.0,2.182e-31
2690.0,8.164e-31
2695.0,3.203e-33
2700.0,9.329999999999999e-29
2705.0,2.6460000000000004e-26
2710.0,2.107e-31
2715.0,2.661e-29
2720.0,0.0
2725.0,5.958e-27
2730.0,1.737e-24
2735.0,1.9810000000000003e-26
2740.0,3.5780000000000004e-32
2745.0,4.613e-27
2750.0,2.586e-26
2755.0,4.16e-28
2760.0,6.232999999999999e-23
2765.0,2.925e-29
2770.0,1.4380000000000002e-26
2775.0,1.776e-23
2780.0,8.262000000000001e-21
2785.0,3.1020000000000004e-20
2790.0,7.073e-18
2795.0,1.57e-18
2800.0,4.968e-15
2805.0,9.288e-17
2810.0,3.725e-13
2815.0,1.111e-13
2820.0,1.357e-15
2825.0,2.046e-10
2830.0,2.589e-10
2835.0,3.567e-15
2840.0,7.633e-12
2845.0,2.641e-09
2850.0,4.572e-11
2855.0,1.826e-11
2860.0,9.523e-10
2865.0,7e-09
2870.0,1.784e-10
2875.0,1.704e-08
2880.0,1.074e-08
2885.0,1.769e-08
2890.0,7.53e-09
2895.0,1.282e-07
2900.0,3.572e-08
2905.0,4.135e-09
2910.0,1.307e-07
2915.0,5.548e-08
2920.0,1.377e-07
2925.0,4.908e-08
2930.0,2.971e-07
2935.0,3.275e-07
2940.0,7.333e-08
2945.0,6.297e-08
2950.0,2.542e-07
2955.0,1.132e-07
2960.0,2.246e-07
2965.0,3.803e-07
2970.0,1.49e-08
2975.0,3.774e-08
2980.0,5.873e-08
2985.0,3.46e-07
2990.0,5.389e-07
2995.0,2.002e-07
3000.0,3.796e-07
3005.0,1.286e-07
3010.0,3.333e-07
3015.0,2.57e-07
3020.0,2.317e-08
3025.0,3.533e-07
3030.0,2.788e-07
3035.0,1.058e-07
3040.0,8.268e-08
3045.0,1.776e-07
3050.0,4.025e-08
3055.0,9.853e-09
3060.0,2.764e-07
3065.0,1.17e-07
3070.0,6.576e-08
3075.0,2.577e-07
3080.0,1.497e-07
3085.0,6.61e-08
3090.0,8.988e-08
3095.0,2.211e-08
3100.0,1.796e-07
3105.0,3.366e-08
3110.0,2.818e-08
3115.0,8.454e-08
3120.0,4.144e-07
3125.0,6.153e-07
3130.0,2.417e-07
3135.0,4.882e-07
3140.0,1.289e-07
3145.0,1.263e-07
3150.0,2.666e-07
3155.0,2.277e-07
3160.0,3.797e-07
3165.0,6.865e-07
3170.0,7.428e-07
3175.0,3.651e-07
3180.0,4.697e-07
3185.0,2.998e-07
3190.0,1.587e-07
3195.0,8.722e-08
3200.0,1.231e-08
3205.0,8.042e-09
3210.0,3.35e-09
3215.0,1.362e-08
3220.0,4.781e-08
3225.0,5.499e-09
3230.0,9.133e-09
3235.0,2.559e-07
3240.0,1.164e-07
3245.0,2.209e-08
3250.0,8.148e-08
3255.0,3.491e-07
3260.0,3.486e-08
3265.0,7.546e-08
3270.0,3.553e-08
3275.0,2.144e-07
3280.0,9.107e-08
3285.0,4.012e-07
3290.0,2.969e-07
3295.0,3.656e-08
3300.0,5.426e-08
3305.0,1.246e-07
3310.0,1.183e-07
3315.0,1.715e-10
3320.0,1.081e-09
3325.0,9.936e-08
3330.0,1.527e-07
3335.0,2.952e-07
3340.0,6.794e-07
3345.0,1.045e-07
3350.0,2.767e-07
3355.0,1.058e-07
3360.0,1.63e-07
3365.0,2.935e-07
3370.0,1.108e-07
3375.0,5.614e-07
3380.0,1.459e-07
3385.0,7.255e-07
3390.0,3.408e-07
3395.0,6.523e-07
3400.0,6.612e-06
3405.0,1.216e-07
3410.0,8.747e-07
3415.0,2.09e-07
3420.0,1.888e-05
3425.0,4.665e-07
3430.0,2.597e-07
3435.0,1.549e-05
3440.0,2.326e-07
3445.0,5.708e-06
3450.0,1.719e-06
3455.0,4.041e-07
3460.0,2.332e-05
3465.0,4.372e-07
3470.0,2.201e-05
3475.0,2.778e-06
3480.0,2.952e-06
3485.0,1.781e-05
3490.0,1.56e-06
3495.0,1.846e-05
3500.0,1.75e-05
3505.0,1.471e-05
3510.0,1.664e-05
3515.0,1.489e-05
3520.0,2.753e-05
3525.0,2.587e-05
3530.0,1.266e-05
3535.0,1.555e-06
3540.0,1.168e-06
3545.0,1.173e-06
3550.0,1.098e-05
3555.0,2.246e-06
3560.0,1.822e-05
3565.0,8.447e-06
3570.0,2.159e-06
3575.0,1.13e-06
3580.0,8.553e-06
3585.0,2.144e-06
3590.0,5.955e-06
3595.0,1.728e-05
3600.0,2.496e-05
3605.0,9.501e-06
3610.0,6.878e-06
3615.0,1.881e-05
3620.0,6.578e-05
3625.0,1.344e-05
3630.0,2.213e-05
3635.0,2.707e-05
3640.0,7.996e-05
3645.0,1.868e-05
3650.0,2.206e-05
3655.0,4.888e-05
3660.0,6.102e-05
3665.0,1.391e-05
3670.0,6.24e-06
3675.0,2.351e-07
3680.0,3.853e-06
3685.0,9.783e-06
3690.0,8.882e-06
3695.0,3.396e-05
3700.0,8.224e-05
3705.0,7.53e-05
3710.0,1.669e-05
3715.0,2.813e-05
3720.0,5.521e-05
3725.0,6.652e-05
3730.0,2.602e-05
3735.0,1.279e-05
3740.0,2.489e-05
3745.0,6.202e-05
3750.0,3.677e-05
3755.0,2.487e-05
3760.0,1.427e-05
3765.0,1.673e-05
3770.0,2.512e-05
3775.0,2.782e-05
3780.0,4.655e-05
3785.0,2.62e-05
3790.0,1.109e-05
3795.0,3.546e-05
3800.0,6.518e-05
3805.0,4.652e-05
3810.0,1.966e-05
3815.0,1.533e-05
3820.0,6.397e-05
3825.0,6.367e-05
3830.0,6.633e-05
3835.0,1.17e-05
3840.0,3.641e-05
3845.0,2.353e-05
3850.0,2.377e-05
3855.0,1.839e-05
3860.0,5.013e-06
3865.0,5.221e-06
3870.0,1.191e-06
3875.0,3.649e-07
3880.0,2.348e-07
3885.0,3.511e-07
3890.0,4.386e-07
3895.0,1.583e-06
3900.0,6.609e-06
3905.0,5.39e-06
3910.0,8.551e-07
3915.0,6.501e-07
3920.0,6.983e-07
3925.0,6.472e-07
3930.0,9.477e-07
3935.0,1.964e-06
3940.0,2.474e-06
3945.0,3.63e-06
3950.0,5.452e-06
3955.0,6.762e-06
3960.0,8.153e-06
3965.0,9.46e-06
3970.0,8.138e-06
3975.0,5.491e-06
3980.0,4.675e-06
3985.0,5.46e-06
3990.0,4.693e-06
3995.0,3.453e-06
4000.0,2.546e-06
