interpolation:linear
wavelength,value
280.0,2.387e-23
280.5,8.3129999999999995e-22
281.0,4.534e-21
281.5,1.523e-19
282.0,1.251e-18
282.5,4.789e-18
283.0,1.382e-17
283.5,2.192e-17
284.0,3.519e-16
284.5,1.028e-15
285.0,7.168e-16
285.5,3.827e-15
286.0,1.566e-14
286.5,7.302e-14
287.0,2.136e-13
287.5,8.449e-13
288.0,8.634e-12
288.5,1.926e-11
289.0,4.393e-11
289.5,1.204e-10
290.0,3.164e-10
290.5,6.213e-10
291.0,1.289e-09
291.5,3.596e-09
292.0,6.861e-09
292.5,9.151e-09
293.0,1.859e-08
293.5,4.271e-08
294.0,6.387e-08
294.5,1.283e-08
295.0,2.154e-08
295.5,3.34e-08
296.0,5.838e-08
296.5,7.412e-08
297.0,9.266e-08
297.5,2.209e-07
298.0,3.146e-07
298.5,2.926e-07
299.0,5.977e-07
299.5,8.671e-07
300.0,8.843e-07
300.5,1.185e-06
301.0,1.893e-06
301.5,2.694e-06
302.0,2.176e-06
302.5,2.8e-06
303.0,5.051e-06
303.5,6.357e-06
304.0,5.943e-06
304.5,8.858e-06
305.0,1.375e-05
305.5,1.621e-05
306.0,1.591e-05
306.5,2.034e-05
307.0,3.238e-05
307.5,4.679e-05
308.0,5.017e-05
308.5,6.212e-05
309.0,5.624e-05
309.5,6.3e-05
310.0,6.376e-05
310.5,0.000104
311.0,0.0001327
311.5,0.0001293
312.0,0.000137
312.5,0.0001753
313.0,0.000196
313.5,0.0001851
314.0,0.0002488
314.5,0.0002519
315.0,0.0003424
315.5,0.000262
316.0,0.0002663
316.5,0.0004389
317.0,0.0005436
317.5,0.0005437
318.0,0.0004668
318.5,0.0007017
319.0,0.0009203
319.5,0.0006394
320.0,0.0007546
320.5,0.001155
321.0,0.001244
321.5,0.001216
322.0,0.001056
322.5,0.0009282
323.0,0.001056
323.5,0.002644
324.0,0.003211
324.5,0.002943
325.0,0.00136
325.5,0.001957
326.0,0.004559
326.5,0.005182
327.0,0.004928
327.5,0.004484
328.0,0.003354
328.5,0.004346
329.0,0.006252
329.5,0.007536
330.0,0.007241
330.5,0.004992
331.0,0.004874
331.5,0.005466
332.0,0.006963
332.5,0.007404
333.0,0.007081
333.5,0.005683
334.0,0.005704
334.5,0.007546
335.0,0.007656
335.5,0.009532
336.0,0.006594
336.5,0.006976
337.0,0.005409
337.5,0.006587
338.0,0.00718
338.5,0.008962
339.0,0.00894
339.5,0.008557
340.0,0.009324
340.5,0.008496
341.0,0.008877
341.5,0.008268
342.0,0.00992
342.5,0.009319
343.0,0.01016
343.5,0.00951
344.0,0.006553
344.5,0.007021
345.0,0.00945
345.5,0.009717
346.0,0.008298
346.5,0.009426
347.0,0.01004
347.5,0.008101
348.0,0.009322
348.5,0.00937
349.0,0.008714
349.5,0.00862
350.0,0.01067
350.5,0.01126
351.0,0.01001
351.5,0.00962
352.0,0.01041
352.5,0.008173
353.0,0.01033
353.5,0.01108
354.0,0.01152
354.5,0.01169
355.0,0.01163
355.5,0.01052
356.0,0.01102
356.5,0.009417
357.0,0.007779
357.5,0.009532
358.0,0.007561
358.5,0.006466
359.0,0.009037
359.5,0.01148
360.0,0.01218
360.5,0.009755
361.0,0.008906
361.5,0.01027
362.0,0.008884
362.5,0.0123
363.0,0.01105
363.5,0.01018
364.0,0.01245
364.5,0.01065
365.0,0.01084
365.5,0.01361
366.0,0.01443
366.5,0.01356
367.0,0.01322
367.5,0.01372
368.0,0.012
368.5,0.01211
369.0,0.01308
369.5,0.01395
370.0,0.01488
370.5,0.01155
371.0,0.01235
371.5,0.01545
372.0,0.01026
372.5,0.0123
373.0,0.01252
373.5,0.008144
374.0,0.01184
374.5,0.009805
375.0,0.009534
375.5,0.01424
376.0,0.01181
376.5,0.01224
377.0,0.01296
377.5,0.01517
378.0,0.01644
378.5,0.01554
379.0,0.01283
379.5,0.01172
380.0,0.01219
380.5,0.01477
381.0,0.0148
381.5,0.01174
382.0,0.01042
382.5,0.008889
383.0,0.008231
383.5,0.00793
384.0,0.00875
384.5,0.01287
385.0,0.01277
385.5,0.01189
386.0,0.01019
386.5,0.01339
387.0,0.01113
387.5,0.0125
388.0,0.01154
388.5,0.01141
389.0,0.01232
389.5,0.01493
390.0,0.01498
390.5,0.01379
391.0,0.01624
391.5,0.01657
392.0,0.01396
392.5,0.0125
393.0,0.006956
393.5,0.005057
394.0,0.01029
394.5,0.01309
395.0,0.01598
395.5,0.01623
396.0,0.01408
396.5,0.008232
397.0,0.00618
397.5,0.01257
398.0,0.01761
398.5,0.01821
399.0,0.01972
399.5,0.01966
400.0,0.02042
401.0,0.02017
402.0,0.02128
403.0,0.02022
404.0,0.01992
405.0,0.01992
406.0,0.0196
407.0,0.01928
408.0,0.02003
409.0,0.02143
410.0,0.01873
411.0,0.0203
412.0,0.02181
413.0,0.02129
414.0,0.02155
415.0,0.0216
416.0,0.02197
417.0,0.02143
418.0,0.02104
419.0,0.02133
420.0,0.02124
421.0,0.02222
422.0,0.02111
423.0,0.0206
424.0,0.02177
425.0,0.02172
426.0,0.02116
427.0,0.02078
428.0,0.02026
429.0,0.01921
430.0,0.01682
431.0,0.01666
432.0,0.02149
433.0,0.0216
434.0,0.02006
435.0,0.02097
436.0,0.02364
437.0,0.02331
438.0,0.0212
439.0,0.02188
440.0,0.02255
441.0,0.02332
442.0,0.02498
443.0,0.02432
444.0,0.02488
445.0,0.02439
446.0,0.02333
447.0,0.02526
448.0,0.02563
449.0,0.0257
450.0,0.02638
451.0,0.02735
452.0,0.02638
453.0,0.02483
454.0,0.02595
455.0,0.02606
456.0,0.02665
457.0,0.02702
458.0,0.026
459.0,0.02577
460.0,0.02575
461.0,0.02629
462.0,0.02651
463.0,0.02638
464.0,0.02605
465.0,0.02582
466.0,0.02612
467.0,0.02563
468.0,0.02588
469.0,0.02595
470.0,0.02509
471.0,0.02506
472.0,0.02643
473.0,0.02609
474.0,0.0261
475.0,0.02623
476.0,0.0253
477.0,0.02522
478.0,0.02581
479.0,0.02553
480.0,0.02548
481.0,0.02589
482.0,0.02602
483.0,0.02577
484.0,0.02533
485.0,0.02425
486.0,0.0213
487.0,0.02239
488.0,0.02457
489.0,0.02461
490.0,0.02586
491.0,0.02539
492.0,0.02397
493.0,0.02477
494.0,0.02503
495.0,0.02525
496.0,0.02537
497.0,0.02569
498.0,0.02437
499.0,0.02453
500.0,0.02366
501.0,0.02306
502.0,0.02251
503.0,0.02322
504.0,0.02235
505.0,0.02328
506.0,0.02404
507.0,0.02292
508.0,0.02232
509.0,0.02307
510.0,0.02306
511.0,0.02376
512.0,0.02406
513.0,0.02276
514.0,0.02259
515.0,0.02233
516.0,0.02224
517.0,0.01975
518.0,0.02074
519.0,0.02174
520.0,0.02248
521.0,0.02264
522.0,0.02258
523.0,0.02212
524.0,0.02275
525.0,0.02284
526.0,0.02172
527.0,0.02031
528.0,0.02136
529.0,0.02239
530.0,0.02196
531.0,0.02219
532.0,0.02138
533.0,0.02074
534.0,0.02139
535.0,0.02193
536.0,0.0222
537.0,0.02138
538.0,0.02177
539.0,0.02156
540.0,0.0206
541.0,0.02054
542.0,0.02112
543.0,0.02097
544.0,0.02118
545.0,0.02112
546.0,0.0211
547.0,0.02117
548.0,0.02099
549.0,0.02108
550.0,0.02133
551.0,0.02109
552.0,0.02124
553.0,0.02084
554.0,0.02132
555.0,0.02132
556.0,0.02099
557.0,0.02026
558.0,0.02
559.0,0.01951
560.0,0.01963
561.0,0.01976
562.0,0.01948
563.0,0.01986
564.0,0.0192
565.0,0.01893
566.0,0.01855
567.0,0.01875
568.0,0.01825
569.0,0.01749
570.0,0.01743
571.0,0.01734
572.0,0.01747
573.0,0.01757
574.0,0.0174
575.0,0.01696
576.0,0.01679
577.0,0.01701
578.0,0.01691
579.0,0.01725
580.0,0.01799
581.0,0.01844
582.0,0.01907
583.0,0.01936
584.0,0.0197
585.0,0.01934
586.0,0.01899
587.0,0.01926
588.0,0.01838
589.0,0.01512
590.0,0.01571
591.0,0.01742
592.0,0.01668
593.0,0.01742
594.0,0.01715
595.0,0.01626
596.0,0.01803
597.0,0.01726
598.0,0.01757
599.0,0.01774
600.0,0.01788
601.0,0.01791
602.0,0.01786
603.0,0.01834
604.0,0.01877
605.0,0.01881
606.0,0.01884
607.0,0.01915
608.0,0.01908
609.0,0.01927
610.0,0.01929
611.0,0.01954
612.0,0.01963
613.0,0.01953
614.0,0.0194
615.0,0.01995
616.0,0.01939
617.0,0.01944
618.0,0.02028
619.0,0.02014
620.0,0.0203
621.0,0.02035
622.0,0.02014
623.0,0.01983
624.0,0.01944
625.0,0.01934
626.0,0.01952
627.0,0.01942
628.0,0.01448
629.0,0.01742
630.0,0.01688
631.0,0.01848
632.0,0.01864
633.0,0.01976
634.0,0.0201
635.0,0.02075
636.0,0.02077
637.0,0.02141
638.0,0.02203
639.0,0.02202
640.0,0.02213
641.0,0.02233
642.0,0.02252
643.0,0.02293
644.0,0.02309
645.0,0.02292
646.0,0.02199
647.0,0.02015
648.0,0.02056
649.0,0.01967
650.0,0.02173
651.0,0.02311
652.0,0.02057
653.0,0.02307
654.0,0.02301
655.0,0.02112
656.0,0.01928
657.0,0.02016
658.0,0.02306
659.0,0.02374
660.0,0.02397
661.0,0.0247
662.0,0.02522
663.0,0.02483
664.0,0.02519
665.0,0.02532
666.0,0.02551
667.0,0.02564
668.0,0.02591
669.0,0.0264
670.0,0.02644
671.0,0.02657
672.0,0.02648
673.0,0.02702
674.0,0.02704
675.0,0.02692
676.0,0.02723
677.0,0.02708
678.0,0.02727
679.0,0.02695
680.0,0.02723
681.0,0.02707
682.0,0.02708
683.0,0.02703
684.0,0.02683
685.0,0.02729
686.0,0.02687
687.0,0.007256
688.0,0.009182
689.0,0.009257
690.0,0.01045
691.0,0.01263
692.0,0.01545
693.0,0.01589
694.0,0.01711
695.0,0.02042
696.0,0.02063
697.0,0.02609
698.0,0.02487
699.0,0.02159
700.0,0.02142
701.0,0.02004
702.0,0.02076
703.0,0.02199
704.0,0.02433
705.0,0.02389
706.0,0.02448
707.0,0.02478
708.0,0.02504
709.0,0.02625
710.0,0.02496
711.0,0.02558
712.0,0.02647
713.0,0.02508
714.0,0.02593
715.0,0.02396
716.0,0.02317
717.0,0.01299
718.0,0.01228
719.0,0.01136
720.0,0.01086
721.0,0.01473
722.0,0.01968
723.0,0.01721
724.0,0.01382
725.0,0.01299
726.0,0.01293
727.0,0.01562
728.0,0.01208
729.0,0.01453
730.0,0.01448
731.0,0.01342
732.0,0.01703
733.0,0.02029
734.0,0.02216
735.0,0.02127
736.0,0.0202
737.0,0.0208
738.0,0.02441
739.0,0.02397
740.0,0.02563
741.0,0.0259
742.0,0.02664
743.0,0.02739
744.0,0.02765
745.0,0.0282
746.0,0.02834
747.0,0.02856
748.0,0.02857
749.0,0.0283
750.0,0.02832
751.0,0.02805
752.0,0.02824
753.0,0.02846
754.0,0.02849
755.0,0.02827
756.0,0.02837
757.0,0.02838
758.0,0.02789
759.0,0.024
760.0,0.001327
761.0,0.0007076
762.0,0.003895
763.0,0.001978
764.0,0.002926
765.0,0.003852
766.0,0.004804
767.0,0.007308
768.0,0.01429
769.0,0.01761
770.0,0.02305
771.0,0.026
772.0,0.02703
773.0,0.02749
774.0,0.02759
775.0,0.02756
776.0,0.02801
777.0,0.02769
778.0,0.02749
779.0,0.02753
780.0,0.02745
781.0,0.02752
782.0,0.02774
783.0,0.02733
784.0,0.02757
785.0,0.02718
786.0,0.02718
787.0,0.02452
788.0,0.02377
789.0,0.02366
790.0,0.02107
791.0,0.02304
792.0,0.02335
793.0,0.02277
794.0,0.02574
795.0,0.02555
796.0,0.02097
797.0,0.02144
798.0,0.02521
799.0,0.02442
800.0,0.02257
801.0,0.02187
802.0,0.02161
803.0,0.02046
804.0,0.02133
805.0,0.02239
806.0,0.02523
807.0,0.02459
808.0,0.02427
809.0,0.02202
810.0,0.02175
811.0,0.01917
812.0,0.01719
813.0,0.01647
814.0,0.01143
815.0,0.01157
816.0,0.01125
817.0,0.01119
818.0,0.01062
819.0,0.0126
820.0,0.013
821.0,0.01816
822.0,0.01613
823.0,0.00579
824.0,0.0141
825.0,0.01957
826.0,0.01502
827.0,0.01836
828.0,0.01066
829.0,0.01648
830.0,0.01615
831.0,0.01573
832.0,0.0146
833.0,0.01675
834.0,0.01568
835.0,0.02108
836.0,0.01746
837.0,0.02085
838.0,0.01878
839.0,0.02105
840.0,0.02222
841.0,0.0209
842.0,0.02216
843.0,0.02419
844.0,0.02309
845.0,0.0246
846.0,0.02518
847.0,0.02507
848.0,0.02416
849.0,0.02358
850.0,0.02247
851.0,0.02296
852.0,0.02346
853.0,0.02307
854.0,0.01952
855.0,0.022
856.0,0.02387
857.0,0.0249
858.0,0.02451
859.0,0.02504
860.0,0.02531
861.0,0.02509
862.0,0.02563
863.0,0.02621
864.0,0.02498
865.0,0.02484
866.0,0.02234
867.0,0.02334
868.0,0.02543
869.0,0.02496
870.0,0.0257
871.0,0.02533
872.0,0.02531
873.0,0.02528
874.0,0.02499
875.0,0.02443
876.0,0.02466
877.0,0.02492
878.0,0.02512
879.0,0.02475
880.0,0.02418
881.0,0.02347
882.0,0.02367
883.0,0.02422
884.0,0.02391
885.0,0.02389
886.0,0.02159
887.0,0.02301
888.0,0.02265
889.0,0.0241
890.0,0.02254
891.0,0.0233
892.0,0.02033
893.0,0.01894
894.0,0.01531
895.0,0.01191
896.0,0.01044
897.0,0.00783
898.0,0.008766
899.0,0.00479
900.0,0.009051
901.0,0.005138
902.0,0.006294
903.0,0.006829
904.0,0.01403
905.0,0.01268
906.0,0.01127
907.0,0.006061
908.0,0.007355
909.0,0.007733
910.0,0.005007
911.0,0.007333
912.0,0.008753
913.0,0.005162
914.0,0.006703
915.0,0.005316
916.0,0.00531
917.0,0.007358
918.0,0.00492
919.0,0.007995
920.0,0.01117
921.0,0.01083
922.0,0.007988
923.0,0.01072
924.0,0.007429
925.0,0.006916
926.0,0.007059
927.0,0.008712
928.0,0.003093
929.0,0.00238
930.0,0.001428
931.0,0.001304
932.0,0.0008891
933.0,0.0007092
934.0,0.000383
935.0,0.0007204
936.0,0.000445
937.0,0.0004491
938.0,0.0005504
939.0,0.001228
940.0,0.001597
941.0,0.001075
942.0,0.001262
943.0,0.0007915
944.0,0.0008596
945.0,0.001102
946.0,0.0005285
947.0,0.001084
948.0,0.0007985
949.0,0.001549
950.0,0.000382
951.0,0.001514
952.0,0.0007783
953.0,0.001018
954.0,0.00128
955.0,0.00117
956.0,0.00127
957.0,0.0007766
958.0,0.001968
959.0,0.001263
960.0,0.001512
961.0,0.001991
962.0,0.001867
963.0,0.002836
964.0,0.002419
965.0,0.002455
966.0,0.003001
967.0,0.003061
968.0,0.00998
969.0,0.007438
970.0,0.00784
971.0,0.0105
972.0,0.009822
973.0,0.005364
974.0,0.005133
975.0,0.006216
976.0,0.004924
977.0,0.009467
978.0,0.006411
979.0,0.007621
980.0,0.007286
981.0,0.01107
982.0,0.009781
983.0,0.00862
984.0,0.01425
985.0,0.009151
986.0,0.0173
987.0,0.01415
988.0,0.01514
989.0,0.01869
990.0,0.01389
991.0,0.01861
992.0,0.01897
993.0,0.01602
994.0,0.01934
995.0,0.01985
996.0,0.01927
997.0,0.01945
998.0,0.01916
999.0,0.01926
1000.0,0.01863
1001.0,0.0195
1002.0,0.01584
1003.0,0.01909
1004.0,0.01755
1005.0,0.01799
1006.0,0.01858
1007.0,0.0189
1008.0,0.01846
1009.0,0.01784
1010.0,0.01766
1011.0,0.01875
1012.0,0.01841
1013.0,0.01904
1014.0,0.0189
1015.0,0.01876
1016.0,0.01853
1017.0,0.01839
1018.0,0.01878
1019.0,0.0171
1020.0,0.01854
1021.0,0.0187
1022.0,0.01813
1023.0,0.01842
1024.0,0.01704
1025.0,0.01863
1026.0,0.0181
1027.0,0.01838
1028.0,0.01819
1029.0,0.0177
1030.0,0.01826
1031.0,0.01813
1032.0,0.01809
1033.0,0.0179
1034.0,0.01788
1035.0,0.01795
1036.0,0.01782
1037.0,0.01764
1038.0,0.01764
1039.0,0.01752
1040.0,0.01742
1041.0,0.01735
1042.0,0.01721
1043.0,0.01708
1044.0,0.01704
1045.0,0.01672
1046.0,0.01644
1047.0,0.01647
1048.0,0.01644
1049.0,0.01626
1050.0,0.01604
1051.0,0.01586
1052.0,0.01565
1053.0,0.01534
1054.0,0.01518
1055.0,0.01496
1056.0,0.01466
1057.0,0.01443
1058.0,0.01389
1059.0,0.01367
1060.0,0.01355
1061.0,0.01341
1062.0,0.01333
1063.0,0.01297
1064.0,0.01319
1065.0,0.01261
1066.0,0.01272
1067.0,0.01282
1068.0,0.01223
1069.0,0.0122
1070.0,0.01264
1071.0,0.01346
1072.0,0.01283
1073.0,0.01267
1074.0,0.01404
1075.0,0.01134
1076.0,0.01404
1077.0,0.01281
1078.0,0.01166
1079.0,0.0144
1080.0,0.01228
1081.0,0.01091
1082.0,0.0131
1083.0,0.01354
1084.0,0.01076
1085.0,0.01267
1086.0,0.0095
1087.0,0.01084
1088.0,0.01336
1089.0,0.01053
1090.0,0.00981
1091.0,0.0124
1092.0,0.01267
1093.0,0.006978
1094.0,0.0109
1095.0,0.006848
1096.0,0.005831
1097.0,0.01258
1098.0,0.005727
1099.0,0.005658
1100.0,0.004168
1101.0,0.004966
1102.0,0.004022
1103.0,0.003221
1104.0,0.003755
1105.0,0.004487
1106.0,0.0016
1107.0,0.004299
1108.0,0.001994
1109.0,0.001998
1110.0,0.002919
1111.0,0.0008405
1112.0,0.002193
1113.0,0.0005623
1114.0,0.0006105
1115.0,0.0004623
1116.0,0.0003073
1117.0,0.0001088
1118.0,0.0003351
1119.0,0.0001605
1120.0,0.0002011
1121.0,0.0002669
1122.0,0.0001105
1123.0,0.0001798
1124.0,0.0001513
1125.0,0.0001973
1126.0,6.698e-05
1127.0,0.000221
1128.0,0.0001302
1129.0,0.0001379
1130.0,8.986e-05
1131.0,0.0004221
1132.0,0.0003281
1133.0,0.0002036
1134.0,5.071e-05
1135.0,1.9e-05
1136.0,0.0001674
1137.0,0.0004043
1138.0,0.0002827
1139.0,0.0004707
1140.0,0.0003646
1141.0,0.0002672
1142.0,0.0003098
1143.0,0.0004555
1144.0,0.0001496
1145.0,0.0001886
1146.0,0.0002027
1147.0,6.97e-05
1148.0,0.0003843
1149.0,0.0002958
1150.0,0.0001595
1151.0,0.0002702
1152.0,0.0003406
1153.0,0.0003496
1154.0,0.0001787
1155.0,0.0004939
1156.0,0.000438
1157.0,0.0006676
1158.0,0.0006485
1159.0,0.000725
1160.0,0.0007165
1161.0,0.001561
1162.0,0.001744
1163.0,0.00397
1164.0,0.002934
1165.0,0.001856
1166.0,0.002855
1167.0,0.003214
1168.0,0.00342
1169.0,0.003956
1170.0,0.005386
1171.0,0.00445
1172.0,0.006386
1173.0,0.004831
1174.0,0.001872
1175.0,0.005822
1176.0,0.009305
1177.0,0.006954
1178.0,0.003286
1179.0,0.008866
1180.0,0.006292
1181.0,0.005377
1182.0,0.001716
1183.0,0.005787
1184.0,0.00533
1185.0,0.0041
1186.0,0.007138
1187.0,0.005193
1188.0,0.001603
1189.0,0.005092
1190.0,0.007441
1191.0,0.005033
1192.0,0.007879
1193.0,0.007388
1194.0,0.007421
1195.0,0.005488
1196.0,0.004425
1197.0,0.007659
1198.0,0.007047
1199.0,0.003037
1200.0,0.006471
1201.0,0.004787
1202.0,0.006655
1203.0,0.005041
1204.0,0.004974
1205.0,0.007967
1206.0,0.01007
1207.0,0.005935
1208.0,0.006776
1209.0,0.006855
1210.0,0.008587
1211.0,0.007215
1212.0,0.004668
1213.0,0.008453
1214.0,0.005451
1215.0,0.005025
1216.0,0.00917
1217.0,0.008144
1218.0,0.009058
1219.0,0.008437
1220.0,0.008965
1221.0,0.01003
1222.0,0.009111
1223.0,0.008754
1224.0,0.007864
1225.0,0.009123
1226.0,0.01032
1227.0,0.00696
1228.0,0.01116
1229.0,0.01011
1230.0,0.009649
1231.0,0.01169
1232.0,0.01158
1233.0,0.008339
1234.0,0.01246
1235.0,0.01173
1236.0,0.01234
1237.0,0.01094
1238.0,0.0123
1239.0,0.01215
1240.0,0.01239
1241.0,0.01151
1242.0,0.01216
1243.0,0.01215
1244.0,0.01186
1245.0,0.01214
1246.0,0.01212
1247.0,0.01173
1248.0,0.01131
1249.0,0.01172
1250.0,0.01132
1251.0,0.01053
1252.0,0.01138
1253.0,0.009824
1254.0,0.008902
1255.0,0.01103
1256.0,0.008248
1257.0,0.007754
1258.0,0.00968
1259.0,0.00622
1260.0,0.006591
1261.0,0.003712
1262.0,0.002726
1263.0,0.002719
1264.0,0.001338
1265.0,0.002699
1266.0,0.001806
1267.0,0.002366
1268.0,0.001495
1269.0,0.0002263
1270.0,0.002116
1271.0,0.004042
1272.0,0.004146
1273.0,0.003867
1274.0,0.004325
1275.0,0.004676
1276.0,0.005314
1277.0,0.00622
1278.0,0.007477
1279.0,0.007597
1280.0,0.007641
1281.0,0.008084
1282.0,0.008863
1283.0,0.00926
1284.0,0.00955
1285.0,0.009853
1286.0,0.01045
1287.0,0.009474
1288.0,0.009867
1289.0,0.007103
1290.0,0.009722
1291.0,0.01036
1292.0,0.006176
1293.0,0.00952
1294.0,0.009081
1295.0,0.007171
1296.0,0.005776
1297.0,0.00482
1298.0,0.006882
1299.0,0.009201
1300.0,0.00404
1301.0,0.003993
1302.0,0.006909
1303.0,0.004784
1304.0,0.001815
1305.0,0.006211
1306.0,0.005279
1307.0,0.002422
1308.0,0.00426
1309.0,0.004671
1310.0,0.002316
1311.0,0.004161
1312.0,0.003609
1313.0,0.00252
1314.0,0.001298
1315.0,0.001255
1316.0,0.003503
1317.0,0.003396
1318.0,0.004245
1319.0,0.001372
1320.0,0.001112
1321.0,0.002066
1322.0,0.001373
1323.0,0.0004508
1324.0,0.001388
1325.0,0.002186
1326.0,0.00144
1327.0,0.001093
1328.0,0.0004878
1329.0,0.0001787
1330.0,0.00031
1331.0,0.0001236
1332.0,0.0001195
1333.0,0.0001804
1334.0,0.0002451
1335.0,0.0002923
1336.0,0.0001812
1337.0,0.0001721
1338.0,0.0001709
1339.0,0.0001682
1340.0,0.0001741
1341.0,0.0001357
1342.0,0.0001466
1343.0,9.079e-05
1344.0,5.422e-05
1345.0,7.756e-05
1346.0,3.824e-05
1347.0,3.874e-05
1348.0,2.498e-06
1349.0,8.959e-06
1350.0,9.288e-06
1351.0,2.245e-06
1352.0,6.04e-07
1353.0,3.074e-08
1354.0,1.057e-07
1355.0,8.509e-10
1356.0,1.489e-08
1357.0,2.263e-08
1358.0,9.991e-10
1359.0,1.259e-10
1360.0,4.549e-10
1361.0,5.089e-13
1362.0,1.392e-15
1363.0,6.118e-10
1364.0,2.526e-10
1365.0,4.861e-16
1366.0,2.652e-09
1367.0,1.082e-09
1368.0,3.754e-18
1369.0,9.31e-11
1370.0,4.585e-11
1371.0,2.599e-12
1372.0,5.872e-10
1373.0,1.183e-08
1374.0,5.488e-08
1375.0,9.954e-08
1376.0,8.927e-08
1377.0,4.078e-08
1378.0,3.987e-07
1379.0,1.704e-08
1380.0,2.449e-08
1381.0,6.38e-10
1382.0,5.15e-10
1383.0,7.699e-12
1384.0,1.01e-10
1385.0,4.828e-10
1386.0,4.541e-10
1387.0,5.493e-08
1388.0,1.08e-09
1389.0,1.855e-07
1390.0,1.592e-07
1391.0,1.059e-07
1392.0,6.863e-09
1393.0,3.636e-08
1394.0,1.874e-08
1395.0,1.373e-10
1396.0,6.638e-13
1397.0,1.432e-08
1398.0,4.234e-07
1399.0,2.678e-07
1400.0,2.839e-13
1401.0,1.178e-12
1402.0,7.42e-07
1403.0,9.295e-07
1404.0,2.824e-07
1405.0,6.507e-11
1406.0,7.3e-07
1407.0,6.434e-08
1408.0,5.94e-07
1409.0,1.98e-07
1410.0,1.585e-07
1411.0,7.995e-07
1412.0,1.079e-06
1413.0,1.123e-05
1414.0,1.238e-07
1415.0,5.912e-08
1416.0,1.856e-05
1417.0,5.48e-06
1418.0,6.206e-06
1419.0,9.551e-07
1420.0,3.771e-06
1421.0,4.069e-06
1422.0,2.386e-05
1423.0,4.576e-06
1424.0,8.59e-06
1425.0,1.255e-05
1426.0,1.436e-05
1427.0,2.671e-05
1428.0,1.87e-06
1429.0,1.968e-05
1430.0,3.396e-05
1431.0,3.733e-05
1432.0,1.453e-06
1433.0,2.342e-05
1434.0,1.178e-05
1435.0,1.142e-05
1436.0,2.249e-05
1437.0,1.719e-05
1438.0,7.097e-06
1439.0,3.057e-05
1440.0,2.282e-05
1441.0,1.706e-05
1442.0,1.891e-05
1443.0,2.412e-05
1444.0,3.36e-05
1445.0,2.58e-05
1446.0,1.144e-05
1447.0,1.804e-05
1448.0,6.401e-05
1449.0,5.498e-05
1450.0,1.329e-05
1451.0,5.234e-06
1452.0,3.232e-05
1453.0,4.261e-05
1454.0,7.658e-05
1455.0,3.455e-05
1456.0,4.606e-05
1457.0,6.314e-05
1458.0,8.158e-05
1459.0,9.581e-05
1460.0,4.656e-05
1461.0,4.651e-05
1462.0,7.069e-05
1463.0,2.182e-05
1464.0,8.674e-05
1465.0,5.131e-05
1466.0,3.265e-05
1467.0,1.67e-05
1468.0,3.866e-05
1469.0,4.803e-05
1470.0,2.302e-05
1471.0,8.169e-06
1472.0,2.188e-05
1473.0,3.403e-05
1474.0,5.22e-05
1475.0,0.0001101
1476.0,3.406e-05
1477.0,3.383e-05
1478.0,3.198e-05
1479.0,6.413e-05
1480.0,2.898e-05
1481.0,5.878e-05
1482.0,2.859e-05
1483.0,8.272e-05
1484.0,9.446e-05
1485.0,7.198e-05
1486.0,6.337e-05
1487.0,2.751e-05
1488.0,5.548e-05
1489.0,0.0001616
1490.0,0.0002902
1491.0,0.0003474
1492.0,0.0001203
1493.0,0.0002804
1494.0,0.0006936
1495.0,0.0003689
1496.0,0.0002582
1497.0,0.00148
1498.0,0.0007876
1499.0,0.0009183
1500.0,0.002725
1501.0,0.002567
1502.0,0.002137
1503.0,0.0008992
1504.0,0.0002034
1505.0,0.0008763
1506.0,0.00334
1507.0,0.003044
1508.0,0.002914
1509.0,0.001085
1510.0,0.004049
1511.0,0.002949
1512.0,0.004197
1513.0,0.002147
1514.0,0.001785
1515.0,0.00472
1516.0,0.004092
1517.0,0.002767
1518.0,0.003564
1519.0,0.002539
1520.0,0.003673
1521.0,0.006794
1522.0,0.004658
1523.0,0.007105
1524.0,0.005543
1525.0,0.003904
1526.0,0.003864
1527.0,0.004778
1528.0,0.006519
1529.0,0.005645
1530.0,0.004401
1531.0,0.005318
1532.0,0.007245
1533.0,0.007663
1534.0,0.007567
1535.0,0.006882
1536.0,0.007283
1537.0,0.006931
1538.0,0.007601
1539.0,0.007169
1540.0,0.007611
1541.0,0.007443
1542.0,0.007045
1543.0,0.007605
1544.0,0.007292
1545.0,0.007842
1546.0,0.007073
1547.0,0.007452
1548.0,0.007487
1549.0,0.007865
1550.0,0.007642
1551.0,0.00748
1552.0,0.007285
1553.0,0.007637
1554.0,0.007373
1555.0,0.007618
1556.0,0.00749
1557.0,0.007675
1558.0,0.007645
1559.0,0.007559
1560.0,0.007526
1561.0,0.007616
1562.0,0.007317
1563.0,0.007267
1564.0,0.00722
1565.0,0.007612
1566.0,0.00729
1567.0,0.007391
1568.0,0.00721
1569.0,0.007539
1570.0,0.007519
1571.0,0.007516
1572.0,0.007481
1573.0,0.007279
1574.0,0.006861
1575.0,0.006684
1576.0,0.00616
1577.0,0.005919
1578.0,0.00601
1579.0,0.005667
1580.0,0.005884
1581.0,0.005824
1582.0,0.005825
1583.0,0.005711
1584.0,0.006554
1585.0,0.006796
1586.0,0.006613
1587.0,0.00646
1588.0,0.006912
1589.0,0.006766
1590.0,0.006671
1591.0,0.006975
1592.0,0.00684
1593.0,0.007265
1594.0,0.00707
1595.0,0.007132
1596.0,0.006789
1597.0,0.006587
1598.0,0.007214
1599.0,0.00718
1600.0,0.007289
1601.0,0.006975
1602.0,0.006792
1603.0,0.007259
1604.0,0.007163
1605.0,0.007225
1606.0,0.007114
1607.0,0.007199
1608.0,0.006777
1609.0,0.006907
1610.0,0.006732
1611.0,0.006818
1612.0,0.007061
1613.0,0.006793
1614.0,0.00696
1615.0,0.006853
1616.0,0.006728
1617.0,0.006566
1618.0,0.006992
1619.0,0.006474
1620.0,0.006763
1621.0,0.006714
1622.0,0.006798
1623.0,0.006948
1624.0,0.006648
1625.0,0.00658
1626.0,0.006566
1627.0,0.006738
1628.0,0.006511
1629.0,0.006653
1630.0,0.006499
1631.0,0.006022
1632.0,0.006295
1633.0,0.005172
1634.0,0.006364
1635.0,0.005113
1636.0,0.00581
1637.0,0.006096
1638.0,0.004
1639.0,0.005914
1640.0,0.003699
1641.0,0.005582
1642.0,0.006183
1643.0,0.003134
1644.0,0.006411
1645.0,0.004368
1646.0,0.00304
1647.0,0.006387
1648.0,0.003099
1649.0,0.005505
1650.0,0.005774
1651.0,0.002557
1652.0,0.00534
1653.0,0.005938
1654.0,0.003216
1655.0,0.005723
1656.0,0.004566
1657.0,0.005074
1658.0,0.006106
1659.0,0.005745
1660.0,0.005779
1661.0,0.005783
1662.0,0.00467
1663.0,0.006031
1664.0,0.005771
1665.0,0.00317
1666.0,0.0003967
1667.0,0.003191
1668.0,0.005273
1669.0,0.005434
1670.0,0.005939
1671.0,0.005275
1672.0,0.005691
1673.0,0.005927
1674.0,0.00478
1675.0,0.005034
1676.0,0.00561
1677.0,0.004951
1678.0,0.004011
1679.0,0.005784
1680.0,0.005238
1681.0,0.003996
1682.0,0.005642
1683.0,0.005818
1684.0,0.002545
1685.0,0.005782
1686.0,0.005739
1687.0,0.00405
1688.0,0.005375
1689.0,0.005481
1690.0,0.005017
1691.0,0.002788
1692.0,0.004654
1693.0,0.005774
1694.0,0.004179
1695.0,0.005331
1696.0,0.005683
1697.0,0.00194
1698.0,0.005082
1699.0,0.005204
1700.0,0.004322
1702.0,0.005021
1705.0,0.004019
1710.0,0.003608
1715.0,0.003884
1720.0,0.004087
1725.0,0.002601
1730.0,0.003192
1735.0,0.002679
1740.0,0.002684
1745.0,0.00273
1750.0,0.002009
1755.0,0.002003
1760.0,0.001724
1765.0,0.001062
1770.0,0.0009426
1775.0,0.000527
1780.0,0.000273
1785.0,8.983e-05
1790.0,8.283e-05
1795.0,1.037e-05
1800.0,7.137e-06
1805.0,2.828e-06
1810.0,1.837e-06
1815.0,5.312e-07
1820.0,1.329e-07
1825.0,1.734e-07
1830.0,4.227e-10
1835.0,6.401e-10
1840.0,3.735e-12
1845.0,3.994e-10
1850.0,1.803e-10
1855.0,1.723e-11
1860.0,9.875e-10
1865.0,1.376e-09
1870.0,7.533e-15
1875.0,1.361e-14
1880.0,7.249e-09
1885.0,3.863e-09
1890.0,2.119e-08
1895.0,1.229e-08
1900.0,5.255e-11
1905.0,3.58e-11
1910.0,1.734e-09
1915.0,1.689e-09
1920.0,4.43e-08
1925.0,1.041e-07
1930.0,6.011e-08
1935.0,4.582e-07
1940.0,4.551e-07
1945.0,1.874e-06
1950.0,3.678e-06
1955.0,3.251e-06
1960.0,5.903e-06
1965.0,7.335e-05
1970.0,0.0002162
1975.0,0.0002924
1980.0,0.0001991
1985.0,0.0003422
1990.0,0.0006494
1995.0,0.0006795
2000.0,0.001089
2005.0,0.0004795
2010.0,0.002278
2015.0,0.0006674
2020.0,0.001129
2025.0,0.001831
2030.0,0.001267
2035.0,0.002275
2040.0,0.001767
2045.0,0.001892
2050.0,0.002507
2055.0,0.001867
2060.0,0.001666
2065.0,0.001928
2070.0,0.001718
2075.0,0.002379
2080.0,0.002348
2085.0,0.002309
2090.0,0.002493
2095.0,0.00225
2100.0,0.001655
2105.0,0.002254
2110.0,0.001828
2115.0,0.002292
2120.0,0.001652
2125.0,0.001991
2130.0,0.002297
2135.0,0.002429
2140.0,0.002509
2145.0,0.002467
2150.0,0.001627
2155.0,0.001619
2160.0,0.001714
2165.0,0.001453
2170.0,0.001827
2175.0,0.001429
2180.0,0.001742
2185.0,0.001131
2190.0,0.001646
2195.0,0.001524
2200.0,0.0004564
2205.0,0.001041
2210.0,0.001943
2215.0,0.001443
2220.0,0.001556
2225.0,0.001348
2230.0,0.001374
2235.0,0.001184
2240.0,0.001145
2245.0,0.0007804
2250.0,0.00112
2255.0,0.0005585
2260.0,0.0005029
2265.0,0.0007542
2270.0,0.0003821
2275.0,0.0003443
2280.0,0.0007195
2285.0,0.0003499
2290.0,0.0003731
2295.0,0.0003414
2300.0,0.0001857
2305.0,0.0002183
2310.0,0.000772
2315.0,0.0002316
2320.0,8.46e-05
2325.0,0.0004546
2330.0,0.0002846
2335.0,0.0003777
2340.0,6.463e-05
2345.0,9.756e-05
2350.0,4.629e-05
2355.0,7.094e-05
2360.0,0.0001127
2365.0,0.0002402
2370.0,4.021e-06
2375.0,5.986e-05
2380.0,0.0001087
2385.0,1.771e-05
2390.0,2.825e-05
2395.0,4.015e-05
2400.0,5.386e-05
2405.0,4.834e-05
2410.0,4.621e-05
2415.0,5.781e-06
2420.0,5.099e-06
2425.0,8.833e-06
2430.0,2.956e-05
2435.0,1.15e-06
2440.0,3.466e-05
2445.0,1.989e-06
2450.0,9.484e-07
2455.0,8.076e-06
2460.0,4.137e-06
2465.0,1.77e-06
2470.0,1.039e-06
2475.0,1.018e-06
2480.0,4.774e-07
2485.0,3.062e-07
2490.0,1.761e-07
2495.0,1.523e-07
2500.0,3.779e-07
2505.0,7.684e-08
2510.0,1.131e-07
2515.0,2.394e-08
2520.0,1.345e-08
2525.0,1.534e-09
2530.0,1.068e-11
2535.0,2.362e-12
2540.0,5.603e-12
2545.0,4.346e-16
2550.0,1.762e-18
2555.0,8.456e-15
2560.0,2.538e-16
2565.0,5.682000000000001e-20
2570.0,1.692e-24
2575.0,1.07e-34
2580.0,1.116e-28
2585.0,2.3330000000000003e-42
2590.0,1.455e-38
2595.0,2.8319999999999998e-40
2600.0,2.331e-35
2605.0,2.5770000000000003e-42
2610.0,8.869e-42
2615.0,1.4009999999999999e-45
2620.0,7.815000000000001e-36
2625.0,1.431e-35
2630.0,0.0
2635.0,7.453e-22
2640.0,1.6129999999999998e-22
2645.0,7.032e-25
2650.0,7.005000000000001e-26
2655.0,8.424e-35
2660.0,7.093e-32
2665.0,7.006e-45
2670.0,0.0
2675.0,3.363e-44
2680.0,1.4380000000000001e-30
2685.0,1.3740000000000001e-31
2690.0,5.14e-31
2695.0,2.017e-33
2700.0,5.874e-29
2705.0,1.666e-26
2710.0,1.327e-31
2715.0,1.675e-29
2720.0,0.0
2725.0,3.751e-27
2730.0,1.093e-24
2735.0,1.2470000000000001e-26
2740.0,2.253e-32
2745.0,2.904e-27
2750.0,1.6280000000000002e-26
2755.0,2.619e-28
2760.0,3.9239999999999996e-23
2765.0,1.842e-29
2770.0,9.05e-27
2775.0,7.819e-20
2780.0,5.202e-21
2785.0,1.953e-20
2790.0,4.575e-18
2795.0,9.797e-19
2800.0,9.991e-15
2805.0,5.848e-17
2810.0,2.345e-13
2815.0,6.994e-14
2820.0,8.546e-16
2825.0,1.28e-11
2830.0,1.63e-10
2835.0,2.245e-15
2840.0,8.969e-12
2845.0,1.663e-09
2850.0,2.878e-11
2855.0,1.15e-11
2860.0,5.984e-10
2865.0,4.407e-09
2870.0,4.705e-10
2875.0,1.073e-08
2880.0,6.759e-09
2885.0,1.113e-08
2890.0,4.734e-09
2895.0,8.068e-08
2900.0,2.249e-08
2905.0,2.603e-09
2910.0,8.23e-08
2915.0,3.493e-08
2920.0,8.667e-08
2925.0,3.09e-08
2930.0,1.871e-07
2935.0,2.062e-07
2940.0,4.617e-08
2945.0,3.964e-08
2950.0,1.6e-07
2955.0,7.125e-08
2960.0,1.423e-07
2965.0,2.442e-07
2970.0,9.378e-09
2975.0,2.38e-08
2980.0,3.705e-08
2985.0,2.33e-07
2990.0,6.429e-07
2995.0,1.272e-07
3000.0,2.574e-07
3005.0,8.118e-08
3010.0,2.398e-07
3015.0,1.679e-07
3020.0,1.458e-08
3025.0,2.261e-07
3030.0,1.823e-07
3035.0,6.659e-08
3040.0,5.216e-08
3045.0,1.12e-07
3050.0,2.534e-08
3055.0,6.2e-09
3060.0,1.749e-07
3065.0,7.373e-08
3070.0,4.139e-08
3075.0,1.641e-07
3080.0,9.422e-08
3085.0,4.161e-08
3090.0,5.658e-08
3095.0,1.392e-08
3100.0,1.133e-07
3105.0,2.121e-08
3110.0,1.774e-08
3115.0,5.322e-08
3120.0,2.796e-07
3125.0,3.003e-07
3130.0,1.628e-07
3135.0,4.234e-07
3140.0,8.239e-08
3145.0,8.027e-08
3150.0,1.829e-07
3155.0,1.856e-07
3160.0,4.245e-07
3165.0,2.092e-06
3170.0,2.964e-06
3175.0,2.949e-07
3180.0,9.531e-07
3185.0,1.898e-07
3190.0,1.113e-07
3195.0,5.49e-08
3200.0,7.748e-09
3205.0,5.062e-09
3210.0,2.109e-09
3215.0,8.573e-09
3220.0,3.01e-08
3225.0,3.461e-09
3230.0,5.748e-09
3235.0,1.623e-07
3240.0,7.324e-08
3245.0,1.394e-08
3250.0,5.129e-08
3255.0,2.314e-07
3260.0,2.195e-08
3265.0,4.75e-08
3270.0,2.236e-08
3275.0,1.362e-07
3280.0,5.738e-08
3285.0,4.99e-07
3290.0,1.985e-07
3295.0,2.324e-08
3300.0,3.415e-08
3305.0,7.848e-08
3310.0,7.448e-08
3315.0,1.079e-10
3320.0,6.801e-10
3325.0,6.254e-08
3330.0,1.403e-07
3335.0,2.645e-07
3340.0,4.843e-07
3345.0,6.593e-08
3350.0,4.525e-07
3355.0,6.819e-08
3360.0,1.2e-07
3365.0,7.094e-07
3370.0,6.983e-08
3375.0,2.864e-06
3380.0,9.276e-08
3385.0,1.812e-06
3390.0,6.959e-07
3395.0,2.641e-06
3400.0,2.865e-05
3405.0,7.712e-08
3410.0,3.133e-06
3415.0,1.653e-07
3420.0,6.088e-05
3425.0,1.542e-06
3430.0,3.177e-07
3435.0,4.531e-05
3440.0,2.421e-07
3445.0,2.468e-05
3450.0,8.147e-06
3455.0,1.189e-06
3460.0,7.474e-05
3465.0,1.601e-06
3470.0,6.794e-05
3475.0,1.134e-05
3480.0,1.305e-05
3485.0,5.694e-05
3490.0,7.685e-06
3495.0,5.773e-05
3500.0,5.065e-05
3505.0,4.908e-05
3510.0,5.305e-05
3515.0,5.182e-05
3520.0,7.797e-05
3525.0,7.879e-05
3530.0,4.191e-05
3535.0,7.208e-06
3540.0,5.451e-06
3545.0,5.741e-06
3550.0,3.815e-05
3555.0,1.097e-05
3560.0,5.512e-05
3565.0,3.152e-05
3570.0,9.584e-06
3575.0,5.215e-06
3580.0,3.105e-05
3585.0,9.592e-06
3590.0,2.255e-05
3595.0,5.138e-05
3600.0,6.889e-05
3605.0,3.411e-05
3610.0,2.569e-05
3615.0,5.408e-05
3620.0,0.0001543
3625.0,4.331e-05
3630.0,6.12e-05
3635.0,7.187e-05
3640.0,0.0001691
3645.0,5.375e-05
3650.0,6.24e-05
3655.0,0.0001222
3660.0,0.0001451
3665.0,4.331e-05
3670.0,2.173e-05
3675.0,1.058e-06
3680.0,1.56e-05
3685.0,3.635e-05
3690.0,2.996e-05
3695.0,9.002e-05
3700.0,0.0001773
3705.0,0.0001583
3710.0,5.123e-05
3715.0,7.468e-05
3720.0,0.0001345
3725.0,0.0001524
3730.0,7.201e-05
3735.0,3.962e-05
3740.0,6.767e-05
3745.0,0.0001418
3750.0,8.994e-05
3755.0,7.082e-05
3760.0,4.786e-05
3765.0,4.965e-05
3770.0,7.804e-05
3775.0,7.897e-05
3780.0,0.0001147
3785.0,7.055e-05
3790.0,3.431e-05
3795.0,8.888e-05
3800.0,0.0001493
3805.0,0.0001124
3810.0,5.448e-05
3815.0,4.678e-05
3820.0,0.0001459
3825.0,0.0001457
3830.0,0.0001514
3835.0,3.622e-05
3840.0,9.095e-05
3845.0,6.524e-05
3850.0,6.708e-05
3855.0,5.27e-05
3860.0,2.015e-05
3865.0,1.935e-05
3870.0,5.753e-06
3875.0,1.94e-06
3880.0,1.139e-06
3885.0,1.8e-06
3890.0,2.24e-06
3895.0,7.56e-06
3900.0,2.436e-05
3905.0,2.017e-05
3910.0,4.428e-06
3915.0,3.418e-06
3920.0,3.641e-06
3925.0,3.282e-06
3930.0,4.901e-06
3935.0,9.144e-06
3940.0,1.116e-05
3945.0,1.53e-05
3950.0,2.108e-05
3955.0,2.538e-05
3960.0,2.958e-05
3965.0,3.35e-05
3970.0,3.005e-05
3975.0,2.21e-05
3980.0,1.942e-05
3985.0,2.214e-05
3990.0,1.973e-05
3995.0,1.555e-05
4000.0,1.221e-05
