interpolation:linear
wavelength,value
280.0,1.324e-23
280.5,4.631e-22
281.0,2.531e-21
281.5,8.540000000000001e-20
282.0,7.038e-19
282.5,2.731e-18
283.0,1.222e-17
283.5,2.279e-17
284.0,3.315e-16
284.5,9.447e-16
285.0,3.58e-16
285.5,2.014e-15
286.0,8.356e-15
286.5,3.98e-14
287.0,1.178e-13
287.5,4.718e-13
288.0,1.091e-11
288.5,1.786e-11
289.0,3.679e-11
289.5,9.562e-11
290.0,2.451e-10
290.5,4.743e-10
291.0,9.719e-10
291.5,2.679e-09
292.0,5.232e-09
292.5,6.882e-09
293.0,1.378e-08
293.5,3.117e-08
294.0,4.623e-08
294.5,9.238e-09
295.0,1.542e-08
295.5,2.483e-08
296.0,4.215e-08
296.5,5.221e-08
297.0,6.411e-08
297.5,1.493e-07
298.0,2.091e-07
298.5,1.923e-07
299.0,3.887e-07
299.5,5.552e-07
300.0,5.62e-07
300.5,7.48e-07
301.0,1.183e-06
301.5,1.671e-06
302.0,1.345e-06
302.5,1.355e-06
303.0,2.513e-06
303.5,3.214e-06
304.0,3.025e-06
304.5,4.589e-06
305.0,7.323e-06
305.5,8.799e-06
306.0,8.705e-06
306.5,1.128e-05
307.0,1.853e-05
307.5,2.766e-05
308.0,2.983e-05
308.5,3.759e-05
309.0,3.584e-05
309.5,3.765e-05
310.0,3.73e-05
310.5,6.03e-05
311.0,7.592e-05
311.5,7.356e-05
312.0,7.625e-05
312.5,9.649e-05
313.0,0.0001073
313.5,0.0001018
314.0,0.000138
314.5,0.0001471
315.0,0.0002
315.5,0.0001527
316.0,0.0001557
316.5,0.000257
317.0,0.0003184
317.5,0.0003183
318.0,0.0002737
318.5,0.0004125
319.0,0.0005418
319.5,0.0003756
320.0,0.0004432
320.5,0.0006802
321.0,0.0007351
321.5,0.000719
322.0,0.0006224
322.5,0.0005472
323.0,0.0006237
323.5,0.001569
324.0,0.001907
324.5,0.001745
325.0,0.0008044
325.5,0.001159
326.0,0.00271
326.5,0.003086
327.0,0.002934
327.5,0.002666
328.0,0.001989
328.5,0.002587
329.0,0.003704
329.5,0.004475
330.0,0.004292
330.5,0.002975
331.0,0.002903
331.5,0.00324
332.0,0.004141
332.5,0.004416
333.0,0.004217
333.5,0.003368
334.0,0.003378
334.5,0.004495
335.0,0.004575
335.5,0.005717
336.0,0.003956
336.5,0.004163
337.0,0.003221
337.5,0.003919
338.0,0.004292
338.5,0.00538
339.0,0.005369
339.5,0.005138
340.0,0.005576
340.5,0.005084
341.0,0.005333
341.5,0.00497
342.0,0.005964
342.5,0.005604
343.0,0.006108
343.5,0.005717
344.0,0.003924
344.5,0.004219
345.0,0.005683
345.5,0.005846
346.0,0.004993
346.5,0.005673
347.0,0.006044
347.5,0.004875
348.0,0.005612
348.5,0.005642
349.0,0.005248
349.5,0.005191
350.0,0.006429
350.5,0.006781
351.0,0.006031
351.5,0.005792
352.0,0.00627
352.5,0.004924
353.0,0.006227
353.5,0.006676
354.0,0.006946
354.5,0.007045
355.0,0.007011
355.5,0.006344
356.0,0.006648
356.5,0.005678
357.0,0.004691
357.5,0.005749
358.0,0.004561
358.5,0.0039
359.0,0.005451
359.5,0.006925
360.0,0.007351
360.5,0.005886
361.0,0.005374
361.5,0.006195
362.0,0.005362
362.5,0.007425
363.0,0.006671
363.5,0.006146
364.0,0.007519
364.5,0.006427
365.0,0.006546
365.5,0.00822
366.0,0.008714
366.5,0.008192
367.0,0.007982
367.5,0.008286
368.0,0.007251
368.5,0.007316
369.0,0.007904
369.5,0.008429
370.0,0.00899
370.5,0.00698
371.0,0.007461
371.5,0.009338
372.0,0.0062
372.5,0.007436
373.0,0.007565
373.5,0.004923
374.0,0.007156
374.5,0.005928
375.0,0.005764
375.5,0.008608
376.0,0.007138
376.5,0.0074
377.0,0.007837
377.5,0.009172
378.0,0.009945
378.5,0.009402
379.0,0.007761
379.5,0.007091
380.0,0.007374
380.5,0.008934
381.0,0.008955
381.5,0.007101
382.0,0.006308
382.5,0.005378
383.0,0.004981
383.5,0.004799
384.0,0.005295
384.5,0.007791
385.0,0.007728
385.5,0.007199
386.0,0.006167
386.5,0.008103
387.0,0.006735
387.5,0.007567
388.0,0.006988
388.5,0.006909
389.0,0.00746
389.5,0.009038
390.0,0.009073
390.5,0.008352
391.0,0.009834
391.5,0.01003
392.0,0.008453
392.5,0.007569
393.0,0.004213
393.5,0.003063
394.0,0.006235
394.5,0.007929
395.0,0.009677
395.5,0.009833
396.0,0.008528
396.5,0.004987
397.0,0.003744
397.5,0.007616
398.0,0.01067
398.5,0.01103
399.0,0.01195
399.5,0.01191
400.0,0.01237
401.0,0.01222
402.0,0.0129
403.0,0.01225
404.0,0.01207
405.0,0.01207
406.0,0.01188
407.0,0.01169
408.0,0.01214
409.0,0.01299
410.0,0.01135
411.0,0.0123
412.0,0.01322
413.0,0.0129
414.0,0.01306
415.0,0.01309
416.0,0.01332
417.0,0.01299
418.0,0.01275
419.0,0.01292
420.0,0.01287
421.0,0.01346
422.0,0.01279
423.0,0.01248
424.0,0.01318
425.0,0.01315
426.0,0.01281
427.0,0.01258
428.0,0.01227
429.0,0.01163
430.0,0.01018
431.0,0.01009
432.0,0.01301
433.0,0.01307
434.0,0.01214
435.0,0.01269
436.0,0.0143
437.0,0.0141
438.0,0.01282
439.0,0.01323
440.0,0.01363
441.0,0.01409
442.0,0.01509
443.0,0.01469
444.0,0.01503
445.0,0.01473
446.0,0.01409
447.0,0.01525
448.0,0.01547
449.0,0.0155
450.0,0.01591
451.0,0.01649
452.0,0.0159
453.0,0.01497
454.0,0.01563
455.0,0.0157
456.0,0.01604
457.0,0.01626
458.0,0.01565
459.0,0.0155
460.0,0.01548
461.0,0.0158
462.0,0.01592
463.0,0.01585
464.0,0.01564
465.0,0.0155
466.0,0.01568
467.0,0.01538
468.0,0.01552
469.0,0.01556
470.0,0.01504
471.0,0.01502
472.0,0.01584
473.0,0.01564
474.0,0.01564
475.0,0.01572
476.0,0.01517
477.0,0.01512
478.0,0.01546
479.0,0.01528
480.0,0.01522
481.0,0.01545
482.0,0.01551
483.0,0.01535
484.0,0.01508
485.0,0.01444
486.0,0.01268
487.0,0.01332
488.0,0.01461
489.0,0.01463
490.0,0.01536
491.0,0.01507
492.0,0.01422
493.0,0.01469
494.0,0.01484
495.0,0.01497
496.0,0.01503
497.0,0.01521
498.0,0.01442
499.0,0.0145
500.0,0.01398
501.0,0.01362
502.0,0.01329
503.0,0.01371
504.0,0.01325
505.0,0.01374
506.0,0.01419
507.0,0.01353
508.0,0.01316
509.0,0.01359
510.0,0.01358
511.0,0.01398
512.0,0.01414
513.0,0.01337
514.0,0.01326
515.0,0.0131
516.0,0.01304
517.0,0.01158
518.0,0.01216
519.0,0.01273
520.0,0.01317
521.0,0.01325
522.0,0.01321
523.0,0.01294
524.0,0.0133
525.0,0.01336
526.0,0.0127
527.0,0.01187
528.0,0.01247
529.0,0.01307
530.0,0.01282
531.0,0.01295
532.0,0.01247
533.0,0.0121
534.0,0.01247
535.0,0.01277
536.0,0.01292
537.0,0.01244
538.0,0.01266
539.0,0.01254
540.0,0.01198
541.0,0.01195
542.0,0.01229
543.0,0.01218
544.0,0.01231
545.0,0.01226
546.0,0.01226
547.0,0.01229
548.0,0.01217
549.0,0.01222
550.0,0.01236
551.0,0.01221
552.0,0.0123
553.0,0.01206
554.0,0.01234
555.0,0.01233
556.0,0.01214
557.0,0.01172
558.0,0.01157
559.0,0.01128
560.0,0.01135
561.0,0.01142
562.0,0.01126
563.0,0.01149
564.0,0.01111
565.0,0.01095
566.0,0.01073
567.0,0.01085
568.0,0.01058
569.0,0.01021
570.0,0.01016
571.0,0.01007
572.0,0.01019
573.0,0.01025
574.0,0.01015
575.0,0.009911
576.0,0.009806
577.0,0.009932
578.0,0.009862
579.0,0.01004
580.0,0.01043
581.0,0.01067
582.0,0.01102
583.0,0.01117
584.0,0.01135
585.0,0.01114
586.0,0.01094
587.0,0.01111
588.0,0.01072
589.0,0.008849
590.0,0.009191
591.0,0.01009
592.0,0.009714
593.0,0.01016
594.0,0.009935
595.0,0.00958
596.0,0.01047
597.0,0.01004
598.0,0.01013
599.0,0.01029
600.0,0.01031
601.0,0.01029
602.0,0.01026
603.0,0.01052
604.0,0.01077
605.0,0.01079
606.0,0.01081
607.0,0.01099
608.0,0.01095
609.0,0.01106
610.0,0.01107
611.0,0.01121
612.0,0.01126
613.0,0.01121
614.0,0.01113
615.0,0.01144
616.0,0.01113
617.0,0.01115
618.0,0.01163
619.0,0.01155
620.0,0.01165
621.0,0.01168
622.0,0.01155
623.0,0.01137
624.0,0.01115
625.0,0.0111
626.0,0.01121
627.0,0.01116
628.0,0.008586
629.0,0.01006
630.0,0.009779
631.0,0.01063
632.0,0.01076
633.0,0.01136
634.0,0.01155
635.0,0.01193
636.0,0.01192
637.0,0.0123
638.0,0.01263
639.0,0.01262
640.0,0.01269
641.0,0.01281
642.0,0.01292
643.0,0.01319
644.0,0.01327
645.0,0.01316
646.0,0.01274
647.0,0.01173
648.0,0.01179
649.0,0.01142
650.0,0.01246
651.0,0.01324
652.0,0.0118
653.0,0.01327
654.0,0.01338
655.0,0.01209
656.0,0.01103
657.0,0.01164
658.0,0.01323
659.0,0.01377
660.0,0.01385
661.0,0.01422
662.0,0.01452
663.0,0.01433
664.0,0.01453
665.0,0.01459
666.0,0.01472
667.0,0.0148
668.0,0.01497
669.0,0.01526
670.0,0.01528
671.0,0.01537
672.0,0.01532
673.0,0.01563
674.0,0.01565
675.0,0.01559
676.0,0.01577
677.0,0.01569
678.0,0.0158
679.0,0.01562
680.0,0.01578
681.0,0.01568
682.0,0.01569
683.0,0.01565
684.0,0.01552
685.0,0.01581
686.0,0.01554
687.0,0.004914
688.0,0.00593
689.0,0.005963
690.0,0.006514
691.0,0.007549
692.0,0.00899
693.0,0.009233
694.0,0.009822
695.0,0.01169
696.0,0.01183
697.0,0.01538
698.0,0.01431
699.0,0.01234
700.0,0.01224
701.0,0.01142
702.0,0.01179
703.0,0.01256
704.0,0.01373
705.0,0.01374
706.0,0.01412
707.0,0.01418
708.0,0.01483
709.0,0.01543
710.0,0.0145
711.0,0.01491
712.0,0.01553
713.0,0.01456
714.0,0.01509
715.0,0.01395
716.0,0.0133
717.0,0.007537
718.0,0.007382
719.0,0.00715
720.0,0.006708
721.0,0.008948
722.0,0.01111
723.0,0.01017
724.0,0.008607
725.0,0.007951
726.0,0.007472
727.0,0.009681
728.0,0.007087
729.0,0.008492
730.0,0.008244
731.0,0.007832
732.0,0.009666
733.0,0.01155
734.0,0.0127
735.0,0.01224
736.0,0.01141
737.0,0.01194
738.0,0.01421
739.0,0.01393
740.0,0.01503
741.0,0.01521
742.0,0.01576
743.0,0.01614
744.0,0.01623
745.0,0.01661
746.0,0.0167
747.0,0.01685
748.0,0.01686
749.0,0.01672
750.0,0.01673
751.0,0.01657
752.0,0.01669
753.0,0.01683
754.0,0.01684
755.0,0.01671
756.0,0.01678
757.0,0.01678
758.0,0.01649
759.0,0.01396
760.0,0.0009475
761.0,0.0005058
762.0,0.002781
763.0,0.001416
764.0,0.002095
765.0,0.002755
766.0,0.003371
767.0,0.004637
768.0,0.008154
769.0,0.01005
770.0,0.0134
771.0,0.01534
772.0,0.01604
773.0,0.01633
774.0,0.01642
775.0,0.01642
776.0,0.0167
777.0,0.01652
778.0,0.0164
779.0,0.01644
780.0,0.01639
781.0,0.01644
782.0,0.01657
783.0,0.01633
784.0,0.01648
785.0,0.01628
786.0,0.01622
787.0,0.01465
788.0,0.01443
789.0,0.01393
790.0,0.01222
791.0,0.01343
792.0,0.01366
793.0,0.0133
794.0,0.01542
795.0,0.0151
796.0,0.01238
797.0,0.0133
798.0,0.01528
799.0,0.01452
800.0,0.01314
801.0,0.01262
802.0,0.013
803.0,0.01209
804.0,0.01278
805.0,0.01344
806.0,0.0152
807.0,0.01446
808.0,0.01446
809.0,0.01302
810.0,0.01285
811.0,0.01071
812.0,0.00994
813.0,0.009313
814.0,0.006546
815.0,0.006431
816.0,0.007247
817.0,0.007218
818.0,0.007111
819.0,0.00756
820.0,0.008716
821.0,0.01046
822.0,0.009169
823.0,0.003552
824.0,0.008315
825.0,0.01206
826.0,0.008679
827.0,0.0107
828.0,0.0065
829.0,0.01005
830.0,0.009722
831.0,0.009457
832.0,0.009019
833.0,0.009481
834.0,0.008823
835.0,0.01207
836.0,0.0102
837.0,0.01191
838.0,0.01058
839.0,0.0127
840.0,0.01348
841.0,0.01265
842.0,0.01325
843.0,0.01444
844.0,0.01366
845.0,0.0147
846.0,0.01511
847.0,0.01506
848.0,0.01454
849.0,0.01411
850.0,0.01347
851.0,0.01361
852.0,0.01404
853.0,0.01385
854.0,0.0118
855.0,0.01318
856.0,0.01438
857.0,0.01498
858.0,0.01477
859.0,0.01514
860.0,0.0153
861.0,0.01518
862.0,0.01549
863.0,0.01583
864.0,0.01511
865.0,0.01503
866.0,0.01352
867.0,0.01412
868.0,0.01539
869.0,0.01511
870.0,0.01556
871.0,0.01533
872.0,0.01533
873.0,0.01531
874.0,0.01514
875.0,0.01478
876.0,0.01494
877.0,0.01508
878.0,0.01523
879.0,0.01501
880.0,0.01463
881.0,0.01423
882.0,0.0143
883.0,0.01462
884.0,0.01444
885.0,0.01434
886.0,0.01278
887.0,0.01383
888.0,0.01352
889.0,0.01459
890.0,0.01338
891.0,0.0142
892.0,0.01184
893.0,0.01103
894.0,0.008636
895.0,0.006613
896.0,0.006318
897.0,0.005326
898.0,0.00574
899.0,0.00316
900.0,0.00525
901.0,0.003358
902.0,0.003503
903.0,0.004374
904.0,0.008115
905.0,0.007118
906.0,0.006613
907.0,0.004035
908.0,0.004853
909.0,0.004601
910.0,0.002885
911.0,0.004009
912.0,0.006185
913.0,0.003036
914.0,0.004648
915.0,0.002857
916.0,0.00354
917.0,0.003934
918.0,0.003134
919.0,0.004441
920.0,0.006309
921.0,0.005887
922.0,0.004337
923.0,0.005923
924.0,0.003945
925.0,0.003748
926.0,0.003724
927.0,0.004496
928.0,0.001786
929.0,0.00142
930.0,0.0009896
931.0,0.000923
932.0,0.0006522
933.0,0.0005246
934.0,0.0002845
935.0,0.0005331
936.0,0.0003302
937.0,0.0003332
938.0,0.0004083
939.0,0.0008683
940.0,0.001075
941.0,0.0007726
942.0,0.0008963
943.0,0.0005788
944.0,0.0006124
945.0,0.0007852
946.0,0.0003914
947.0,0.00078
948.0,0.0005736
949.0,0.001057
950.0,0.0002835
951.0,0.001043
952.0,0.0005704
953.0,0.0007204
954.0,0.0008808
955.0,0.0008612
956.0,0.0007591
957.0,0.000569
958.0,0.001176
959.0,0.0008424
960.0,0.001007
961.0,0.00124
962.0,0.001144
963.0,0.001679
964.0,0.001442
965.0,0.00146
966.0,0.001851
967.0,0.002063
968.0,0.00628
969.0,0.003852
970.0,0.005015
971.0,0.005559
972.0,0.005825
973.0,0.003057
974.0,0.002826
975.0,0.003863
976.0,0.003401
977.0,0.005779
978.0,0.0037
979.0,0.004644
980.0,0.004568
981.0,0.006083
982.0,0.005181
983.0,0.004703
984.0,0.008094
985.0,0.004861
986.0,0.01056
987.0,0.007846
988.0,0.008549
989.0,0.0113
990.0,0.007682
991.0,0.01122
992.0,0.01154
993.0,0.009197
994.0,0.01178
995.0,0.01214
996.0,0.01177
997.0,0.01184
998.0,0.01166
999.0,0.01174
1000.0,0.01147
1001.0,0.01192
1002.0,0.00954
1003.0,0.01171
1004.0,0.01063
1005.0,0.01091
1006.0,0.01132
1007.0,0.01151
1008.0,0.01118
1009.0,0.01072
1010.0,0.01065
1011.0,0.01134
1012.0,0.01115
1013.0,0.01159
1014.0,0.01152
1015.0,0.01146
1016.0,0.01128
1017.0,0.01116
1018.0,0.01144
1019.0,0.01028
1020.0,0.01131
1021.0,0.01141
1022.0,0.01106
1023.0,0.01119
1024.0,0.01021
1025.0,0.01136
1026.0,0.01097
1027.0,0.01126
1028.0,0.01106
1029.0,0.01074
1030.0,0.01109
1031.0,0.01108
1032.0,0.01098
1033.0,0.01091
1034.0,0.01087
1035.0,0.01092
1036.0,0.0108
1037.0,0.01071
1038.0,0.01071
1039.0,0.01062
1040.0,0.01055
1041.0,0.01049
1042.0,0.01041
1043.0,0.01032
1044.0,0.01028
1045.0,0.01008
1046.0,0.009894
1047.0,0.009899
1048.0,0.009863
1049.0,0.009741
1050.0,0.009597
1051.0,0.009468
1052.0,0.009322
1053.0,0.009114
1054.0,0.008994
1055.0,0.008836
1056.0,0.008622
1057.0,0.00847
1058.0,0.008128
1059.0,0.007968
1060.0,0.007891
1061.0,0.00779
1062.0,0.00776
1063.0,0.007492
1064.0,0.007633
1065.0,0.007234
1066.0,0.007343
1067.0,0.007412
1068.0,0.007041
1069.0,0.00704
1070.0,0.007363
1071.0,0.007848
1072.0,0.00744
1073.0,0.007408
1074.0,0.008235
1075.0,0.006311
1076.0,0.00831
1077.0,0.00729
1078.0,0.006511
1079.0,0.008566
1080.0,0.007047
1081.0,0.006005
1082.0,0.007655
1083.0,0.007939
1084.0,0.00605
1085.0,0.007332
1086.0,0.005491
1087.0,0.005973
1088.0,0.007804
1089.0,0.005875
1090.0,0.005537
1091.0,0.007069
1092.0,0.007392
1093.0,0.003845
1094.0,0.006218
1095.0,0.003588
1096.0,0.00304
1097.0,0.00745
1098.0,0.003028
1099.0,0.002876
1100.0,0.002136
1101.0,0.0025
1102.0,0.002032
1103.0,0.001561
1104.0,0.001929
1105.0,0.002227
1106.0,0.0007902
1107.0,0.002108
1108.0,0.0009323
1109.0,0.001048
1110.0,0.001341
1111.0,0.0004944
1112.0,0.001226
1113.0,0.0003602
1114.0,0.0003957
1115.0,0.0003125
1116.0,0.0002278
1117.0,8.182e-05
1118.0,0.0002472
1119.0,0.0001206
1120.0,0.0001512
1121.0,0.0002007
1122.0,8.315e-05
1123.0,0.0001353
1124.0,0.0001138
1125.0,0.0001483
1126.0,5.041e-05
1127.0,0.0001662
1128.0,9.8e-05
1129.0,0.0001038
1130.0,6.763e-05
1131.0,0.0003141
1132.0,0.0002451
1133.0,0.0001532
1134.0,3.818e-05
1135.0,1.431e-05
1136.0,0.000126
1137.0,0.0003018
1138.0,0.0002116
1139.0,0.000324
1140.0,0.0002649
1141.0,0.0001993
1142.0,0.0002294
1143.0,0.000327
1144.0,0.000112
1145.0,0.000142
1146.0,0.0001526
1147.0,5.25e-05
1148.0,0.0002786
1149.0,0.0002197
1150.0,0.0001184
1151.0,0.0002014
1152.0,0.0002492
1153.0,0.0002464
1154.0,0.0001339
1155.0,0.0003293
1156.0,0.0002993
1157.0,0.0003903
1158.0,0.0003673
1159.0,0.0004231
1160.0,0.0003996
1161.0,0.0008693
1162.0,0.001151
1163.0,0.001889
1164.0,0.001717
1165.0,0.0008862
1166.0,0.001688
1167.0,0.001742
1168.0,0.001652
1169.0,0.00197
1170.0,0.002795
1171.0,0.002257
1172.0,0.00385
1173.0,0.002401
1174.0,0.001007
1175.0,0.003122
1176.0,0.005556
1177.0,0.00369
1178.0,0.001805
1179.0,0.005165
1180.0,0.004145
1181.0,0.002768
1182.0,0.0009305
1183.0,0.002989
1184.0,0.003539
1185.0,0.002552
1186.0,0.003789
1187.0,0.002636
1188.0,0.0009711
1189.0,0.002825
1190.0,0.004159
1191.0,0.002587
1192.0,0.004379
1193.0,0.00471
1194.0,0.004122
1195.0,0.002823
1196.0,0.002228
1197.0,0.004141
1198.0,0.00396
1199.0,0.001622
1200.0,0.003378
1201.0,0.002454
1202.0,0.003678
1203.0,0.002515
1204.0,0.003573
1205.0,0.004821
1206.0,0.005755
1207.0,0.003153
1208.0,0.003636
1209.0,0.003887
1210.0,0.005146
1211.0,0.004198
1212.0,0.002365
1213.0,0.004676
1214.0,0.002844
1215.0,0.002518
1216.0,0.005246
1217.0,0.004627
1218.0,0.005153
1219.0,0.004818
1220.0,0.005127
1221.0,0.005688
1222.0,0.005221
1223.0,0.004978
1224.0,0.004426
1225.0,0.005059
1226.0,0.005925
1227.0,0.00382
1228.0,0.00671
1229.0,0.005771
1230.0,0.005443
1231.0,0.007087
1232.0,0.007044
1233.0,0.004526
1234.0,0.007611
1235.0,0.007072
1236.0,0.00752
1237.0,0.006424
1238.0,0.0075
1239.0,0.007426
1240.0,0.00758
1241.0,0.007024
1242.0,0.00741
1243.0,0.007427
1244.0,0.007191
1245.0,0.0074
1246.0,0.007399
1247.0,0.007105
1248.0,0.006838
1249.0,0.0071
1250.0,0.006805
1251.0,0.006252
1252.0,0.006884
1253.0,0.005751
1254.0,0.005154
1255.0,0.006648
1256.0,0.004676
1257.0,0.004333
1258.0,0.005658
1259.0,0.003331
1260.0,0.003576
1261.0,0.001832
1262.0,0.00129
1263.0,0.001292
1264.0,0.0006161
1265.0,0.001275
1266.0,0.00083
1267.0,0.001108
1268.0,0.000688
1269.0,0.0001689
1270.0,0.0009774
1271.0,0.002007
1272.0,0.002072
1273.0,0.001913
1274.0,0.002184
1275.0,0.002383
1276.0,0.002794
1277.0,0.003335
1278.0,0.004164
1279.0,0.004213
1280.0,0.004401
1281.0,0.004771
1282.0,0.005243
1283.0,0.005452
1284.0,0.005755
1285.0,0.005844
1286.0,0.006247
1287.0,0.005843
1288.0,0.005903
1289.0,0.003832
1290.0,0.005901
1291.0,0.00633
1292.0,0.003198
1293.0,0.005682
1294.0,0.00529
1295.0,0.003849
1296.0,0.002967
1297.0,0.002497
1298.0,0.003733
1299.0,0.005325
1300.0,0.001998
1301.0,0.001882
1302.0,0.003679
1303.0,0.002984
1304.0,0.0008755
1305.0,0.003218
1306.0,0.002542
1307.0,0.001339
1308.0,0.002246
1309.0,0.002244
1310.0,0.001432
1311.0,0.002533
1312.0,0.0018
1313.0,0.001305
1314.0,0.00058
1315.0,0.0005672
1316.0,0.00199
1317.0,0.002365
1318.0,0.002593
1319.0,0.0008458
1320.0,0.0005637
1321.0,0.001097
1322.0,0.0005933
1323.0,0.0002379
1324.0,0.0008175
1325.0,0.001018
1326.0,0.0007277
1327.0,0.0005393
1328.0,0.0002267
1329.0,0.0001144
1330.0,0.0001614
1331.0,8.748e-05
1332.0,8.635e-05
1333.0,0.0001231
1334.0,0.0001312
1335.0,0.0001615
1336.0,0.0001173
1337.0,0.0001074
1338.0,0.000109
1339.0,0.0001094
1340.0,0.0001071
1341.0,9.786e-05
1342.0,0.0001032
1343.0,6.836e-05
1344.0,4.084e-05
1345.0,5.87e-05
1346.0,2.896e-05
1347.0,2.934e-05
1348.0,1.891e-06
1349.0,6.785e-06
1350.0,7.034e-06
1351.0,1.701e-06
1352.0,4.575e-07
1353.0,2.328e-08
1354.0,8.003e-08
1355.0,6.445e-10
1356.0,1.128e-08
1357.0,1.714e-08
1358.0,7.568e-10
1359.0,9.534e-11
1360.0,3.446e-10
1361.0,3.855e-13
1362.0,1.055e-15
1363.0,4.634e-10
1364.0,1.913e-10
1365.0,3.683e-16
1366.0,2.009e-09
1367.0,8.2e-10
1368.0,2.844e-18
1369.0,7.053e-11
1370.0,3.474e-11
1371.0,1.969e-12
1372.0,4.449e-10
1373.0,8.965e-09
1374.0,4.158e-08
1375.0,7.542e-08
1376.0,6.764e-08
1377.0,3.09e-08
1378.0,3.021e-07
1379.0,1.291e-08
1380.0,1.856e-08
1381.0,4.834e-10
1382.0,3.902e-10
1383.0,5.834e-12
1384.0,7.65e-11
1385.0,3.658e-10
1386.0,3.441e-10
1387.0,4.162e-08
1388.0,8.188e-10
1389.0,1.406e-07
1390.0,1.207e-07
1391.0,8.024e-08
1392.0,5.202e-09
1393.0,2.756e-08
1394.0,1.42e-08
1395.0,1.041e-10
1396.0,5.031e-13
1397.0,1.085e-08
1398.0,3.209e-07
1399.0,2.03e-07
1400.0,2.152e-13
1401.0,8.929e-13
1402.0,5.625e-07
1403.0,7.046e-07
1404.0,2.141e-07
1405.0,4.932e-11
1406.0,5.534e-07
1407.0,4.877e-08
1408.0,4.503e-07
1409.0,1.501e-07
1410.0,1.202e-07
1411.0,6.061e-07
1412.0,8.178e-07
1413.0,8.512e-06
1414.0,9.385e-08
1415.0,4.482e-08
1416.0,1.407e-05
1417.0,4.155e-06
1418.0,4.705e-06
1419.0,7.241e-07
1420.0,2.859e-06
1421.0,3.085e-06
1422.0,1.809e-05
1423.0,3.47e-06
1424.0,6.513e-06
1425.0,9.515e-06
1426.0,1.089e-05
1427.0,2.026e-05
1428.0,1.418e-06
1429.0,1.492e-05
1430.0,2.574e-05
1431.0,2.83e-05
1432.0,1.102e-06
1433.0,1.776e-05
1434.0,8.934e-06
1435.0,8.657e-06
1436.0,1.705e-05
1437.0,1.304e-05
1438.0,5.382e-06
1439.0,2.318e-05
1440.0,1.731e-05
1441.0,1.294e-05
1442.0,1.434e-05
1443.0,1.829e-05
1444.0,2.547e-05
1445.0,1.957e-05
1446.0,8.679e-06
1447.0,1.368e-05
1448.0,4.847e-05
1449.0,4.165e-05
1450.0,1.008e-05
1451.0,3.97e-06
1452.0,2.451e-05
1453.0,3.231e-05
1454.0,5.693e-05
1455.0,2.617e-05
1456.0,3.488e-05
1457.0,4.756e-05
1458.0,5.769e-05
1459.0,6.745e-05
1460.0,3.446e-05
1461.0,3.525e-05
1462.0,5.243e-05
1463.0,1.646e-05
1464.0,6.274e-05
1465.0,3.757e-05
1466.0,2.476e-05
1467.0,1.267e-05
1468.0,2.931e-05
1469.0,3.636e-05
1470.0,1.747e-05
1471.0,6.195e-06
1472.0,1.66e-05
1473.0,2.582e-05
1474.0,3.859e-05
1475.0,7.466e-05
1476.0,2.571e-05
1477.0,2.565e-05
1478.0,2.399e-05
1479.0,4.692e-05
1480.0,2.197e-05
1481.0,4.422e-05
1482.0,2.15e-05
1483.0,5.803e-05
1484.0,5.828e-05
1485.0,4.833e-05
1486.0,4.665e-05
1487.0,2.076e-05
1488.0,3.848e-05
1489.0,8.115e-05
1490.0,0.0001223
1491.0,0.0001522
1492.0,7.18e-05
1493.0,0.0001169
1494.0,0.0002708
1495.0,0.0001633
1496.0,0.0001204
1497.0,0.0006664
1498.0,0.0004011
1499.0,0.00035
1500.0,0.001341
1501.0,0.001165
1502.0,0.001172
1503.0,0.0004509
1504.0,8.29e-05
1505.0,0.0003716
1506.0,0.001703
1507.0,0.001525
1508.0,0.001662
1509.0,0.0006135
1510.0,0.002101
1511.0,0.001369
1512.0,0.002233
1513.0,0.0009076
1514.0,0.0008152
1515.0,0.002548
1516.0,0.00223
1517.0,0.001361
1518.0,0.001882
1519.0,0.001224
1520.0,0.001854
1521.0,0.00407
1522.0,0.002496
1523.0,0.00423
1524.0,0.00305
1525.0,0.001994
1526.0,0.002203
1527.0,0.002637
1528.0,0.003776
1529.0,0.003145
1530.0,0.002493
1531.0,0.002923
1532.0,0.004356
1533.0,0.004664
1534.0,0.004805
1535.0,0.004236
1536.0,0.0044
1537.0,0.004709
1538.0,0.004672
1539.0,0.004482
1540.0,0.00467
1541.0,0.004551
1542.0,0.004353
1543.0,0.004708
1544.0,0.004552
1545.0,0.004844
1546.0,0.004286
1547.0,0.004572
1548.0,0.004597
1549.0,0.004877
1550.0,0.00472
1551.0,0.004559
1552.0,0.004608
1553.0,0.004725
1554.0,0.00453
1555.0,0.004718
1556.0,0.004608
1557.0,0.004731
1558.0,0.004731
1559.0,0.00468
1560.0,0.004618
1561.0,0.004681
1562.0,0.00452
1563.0,0.004438
1564.0,0.004398
1565.0,0.004727
1566.0,0.004473
1567.0,0.004534
1568.0,0.004419
1569.0,0.004667
1570.0,0.004635
1571.0,0.004624
1572.0,0.004611
1573.0,0.004459
1574.0,0.004179
1575.0,0.004074
1576.0,0.003677
1577.0,0.003536
1578.0,0.003559
1579.0,0.003307
1580.0,0.003454
1581.0,0.003421
1582.0,0.003434
1583.0,0.003349
1584.0,0.003961
1585.0,0.004127
1586.0,0.004043
1587.0,0.003904
1588.0,0.004276
1589.0,0.004198
1590.0,0.004107
1591.0,0.004319
1592.0,0.004212
1593.0,0.004471
1594.0,0.004373
1595.0,0.004398
1596.0,0.004169
1597.0,0.003991
1598.0,0.00444
1599.0,0.004444
1600.0,0.00453
1601.0,0.004295
1602.0,0.004162
1603.0,0.004506
1604.0,0.004437
1605.0,0.00449
1606.0,0.004415
1607.0,0.004472
1608.0,0.004125
1609.0,0.004282
1610.0,0.004156
1611.0,0.004229
1612.0,0.004387
1613.0,0.00418
1614.0,0.004317
1615.0,0.004244
1616.0,0.00418
1617.0,0.004011
1618.0,0.004334
1619.0,0.00396
1620.0,0.0042
1621.0,0.004151
1622.0,0.004194
1623.0,0.004295
1624.0,0.00408
1625.0,0.004012
1626.0,0.00402
1627.0,0.004145
1628.0,0.003974
1629.0,0.004091
1630.0,0.003979
1631.0,0.003623
1632.0,0.003853
1633.0,0.003008
1634.0,0.00389
1635.0,0.002969
1636.0,0.003494
1637.0,0.00371
1638.0,0.002238
1639.0,0.003606
1640.0,0.002078
1641.0,0.003356
1642.0,0.003775
1643.0,0.001658
1644.0,0.003968
1645.0,0.002491
1646.0,0.001599
1647.0,0.003927
1648.0,0.00163
1649.0,0.003292
1650.0,0.003474
1651.0,0.001299
1652.0,0.003127
1653.0,0.003683
1654.0,0.001733
1655.0,0.003459
1656.0,0.002628
1657.0,0.002991
1658.0,0.003756
1659.0,0.003474
1660.0,0.003468
1661.0,0.003584
1662.0,0.002766
1663.0,0.003686
1664.0,0.003559
1665.0,0.00168
1666.0,0.0001558
1667.0,0.001715
1668.0,0.003145
1669.0,0.003301
1670.0,0.003648
1671.0,0.003176
1672.0,0.003496
1673.0,0.003625
1674.0,0.002817
1675.0,0.00302
1676.0,0.003456
1677.0,0.002919
1678.0,0.002281
1679.0,0.003557
1680.0,0.003079
1681.0,0.002286
1682.0,0.003476
1683.0,0.003598
1684.0,0.001271
1685.0,0.003538
1686.0,0.003523
1687.0,0.002309
1688.0,0.003228
1689.0,0.003331
1690.0,0.003001
1691.0,0.001409
1692.0,0.002705
1693.0,0.003533
1694.0,0.002405
1695.0,0.003198
1696.0,0.003466
1697.0,0.0008896
1698.0,0.003011
1699.0,0.003121
1700.0,0.002522
1702.0,0.002988
1705.0,0.002313
1710.0,0.002036
1715.0,0.002344
1720.0,0.002472
1725.0,0.001342
1730.0,0.002049
1735.0,0.00155
1740.0,0.001686
1745.0,0.001936
1750.0,0.001004
1755.0,0.00129
1760.0,0.00084
1765.0,0.0006666
1770.0,0.0004825
1775.0,0.0003513
1780.0,0.0001837
1785.0,6.475e-05
1790.0,3.797e-05
1795.0,7.873e-06
1800.0,5.416e-06
1805.0,2.151e-06
1810.0,1.397e-06
1815.0,4.04e-07
1820.0,1.011e-07
1825.0,1.319e-07
1830.0,3.215e-10
1835.0,4.868e-10
1840.0,2.841e-12
1845.0,3.038e-10
1850.0,1.371e-10
1855.0,1.311e-11
1860.0,7.512e-10
1865.0,1.047e-09
1870.0,5.73e-15
1875.0,1.035e-14
1880.0,5.514e-09
1885.0,2.939e-09
1890.0,1.612e-08
1895.0,9.353e-09
1900.0,3.998e-11
1905.0,2.723e-11
1910.0,1.319e-09
1915.0,1.285e-09
1920.0,3.371e-08
1925.0,7.919e-08
1930.0,4.574e-08
1935.0,3.486e-07
1940.0,3.462e-07
1945.0,1.426e-06
1950.0,2.776e-06
1955.0,2.473e-06
1960.0,4.365e-06
1965.0,7.084e-05
1970.0,0.0001478
1975.0,0.0001857
1980.0,7.219e-05
1985.0,0.0001332
1990.0,0.0004288
1995.0,0.00036
2000.0,0.00062
2005.0,0.0002817
2010.0,0.00128
2015.0,0.0002848
2020.0,0.0005509
2025.0,0.0009883
2030.0,0.0006368
2035.0,0.00127
2040.0,0.0009255
2045.0,0.001021
2050.0,0.001486
2055.0,0.001006
2060.0,0.0008742
2065.0,0.001165
2070.0,0.0009983
2075.0,0.001403
2080.0,0.00143
2085.0,0.001412
2090.0,0.001493
2095.0,0.001333
2100.0,0.0009399
2105.0,0.001341
2110.0,0.001018
2115.0,0.001366
2120.0,0.0009299
2125.0,0.001177
2130.0,0.001395
2135.0,0.001483
2140.0,0.001524
2145.0,0.001503
2150.0,0.000906
2155.0,0.0008795
2160.0,0.0009658
2165.0,0.0008082
2170.0,0.001061
2175.0,0.0007831
2180.0,0.0009982
2185.0,0.0006283
2190.0,0.0009311
2195.0,0.00085
2200.0,0.0001994
2205.0,0.0005439
2210.0,0.001156
2215.0,0.0007888
2220.0,0.0008895
2225.0,0.0007436
2230.0,0.0007588
2235.0,0.000635
2240.0,0.0006107
2245.0,0.0003835
2250.0,0.0005964
2255.0,0.0002557
2260.0,0.0002265
2265.0,0.00037
2270.0,0.0001622
2275.0,0.0001432
2280.0,0.0003509
2285.0,0.0001466
2290.0,0.0001584
2295.0,0.0001428
2300.0,6.983e-05
2305.0,8.503e-05
2310.0,0.0003834
2315.0,9.011e-05
2320.0,3.014e-05
2325.0,0.000211
2330.0,0.0001176
2335.0,0.0001625
2340.0,2.348e-05
2345.0,3.271e-05
2350.0,1.838e-05
2355.0,2.456e-05
2360.0,3.593e-05
2365.0,0.0001096
2370.0,2.098e-06
2375.0,2.129e-05
2380.0,5.587e-05
2385.0,6.592e-06
2390.0,8.488e-06
2395.0,1.187e-05
2400.0,1.435e-05
2405.0,2.18e-05
2410.0,1.863e-05
2415.0,2.539e-06
2420.0,1.985e-06
2425.0,2.843e-06
2430.0,7.189e-06
2435.0,7.807e-07
2440.0,7.963e-06
2445.0,1.14e-06
2450.0,6.791e-07
2455.0,3.457e-06
2460.0,1.867e-06
2465.0,1.21e-06
2470.0,7.905e-07
2475.0,7.67e-07
2480.0,3.606e-07
2485.0,2.331e-07
2490.0,1.341e-07
2495.0,1.16e-07
2500.0,2.878e-07
2505.0,5.851e-08
2510.0,8.61e-08
2515.0,1.846e-08
2520.0,1.024e-08
2525.0,1.168e-09
2530.0,8.133e-12
2535.0,1.799e-12
2540.0,4.267e-12
2545.0,3.309e-16
2550.0,1.342e-18
2555.0,6.44e-15
2560.0,1.933e-16
2565.0,4.327e-20
2570.0,1.288e-24
2575.0,8.15e-35
2580.0,8.498999999999999e-29
2585.0,1.777e-42
2590.0,1.108e-38
2595.0,2.157e-40
2600.0,1.775e-35
2605.0,1.962e-42
2610.0,6.754000000000001e-42
2615.0,0.0
2620.0,5.952000000000001e-36
2625.0,1.09e-35
2630.0,0.0
2635.0,5.675999999999999e-22
2640.0,1.229e-22
2645.0,5.356e-25
2650.0,5.335000000000001e-26
2655.0,6.416e-35
2660.0,5.402e-32
2665.0,5.605e-45
2670.0,0.0
2675.0,2.662e-44
2680.0,1.0950000000000001e-30
2685.0,1.046e-31
2690.0,3.915e-31
2695.0,1.5359999999999999e-33
2700.0,4.4739999999999996e-29
2705.0,1.2690000000000001e-26
2710.0,1.0100000000000001e-31
2715.0,1.276e-29
2720.0,0.0
2725.0,2.857e-27
2730.0,8.328e-25
2735.0,9.497e-27
2740.0,1.716e-32
2745.0,2.212e-27
2750.0,1.2400000000000001e-26
2755.0,1.995e-28
2760.0,2.989e-23
2765.0,1.403e-29
2770.0,6.893e-27
2775.0,8.816e-24
2780.0,3.962e-21
2785.0,1.488e-20
2790.0,3.392e-18
2795.0,7.462e-19
2800.0,2.383e-15
2805.0,4.454e-17
2810.0,1.786e-13
2815.0,5.327e-14
2820.0,6.509e-16
2825.0,4.927e-10
2830.0,1.242e-10
2835.0,1.71e-15
2840.0,3.665e-12
2845.0,1.267e-09
2850.0,2.192e-11
2855.0,8.756e-12
2860.0,4.635e-10
2865.0,3.356e-09
2870.0,8.777e-11
2875.0,8.169e-09
2880.0,5.149e-09
2885.0,8.481e-09
2890.0,3.608e-09
2895.0,6.145e-08
2900.0,1.713e-08
2905.0,1.983e-09
2910.0,6.269e-08
2915.0,2.66e-08
2920.0,6.602e-08
2925.0,2.353e-08
2930.0,1.424e-07
2935.0,1.571e-07
2940.0,3.516e-08
2945.0,3.02e-08
2950.0,1.219e-07
2955.0,5.427e-08
2960.0,1.077e-07
2965.0,1.825e-07
2970.0,7.143e-09
2975.0,1.81e-08
2980.0,2.817e-08
2985.0,1.666e-07
2990.0,2.783e-07
2995.0,9.655e-08
3000.0,1.838e-07
3005.0,6.166e-08
3010.0,1.625e-07
3015.0,1.238e-07
3020.0,1.111e-08
3025.0,1.695e-07
3030.0,1.342e-07
3035.0,5.073e-08
3040.0,3.965e-08
3045.0,8.517e-08
3050.0,1.93e-08
3055.0,4.724e-09
3060.0,1.325e-07
3065.0,5.611e-08
3070.0,3.153e-08
3075.0,1.236e-07
3080.0,7.177e-08
3085.0,3.169e-08
3090.0,4.31e-08
3095.0,1.06e-08
3100.0,8.613e-08
3105.0,1.614e-08
3110.0,1.351e-08
3115.0,4.054e-08
3120.0,1.99e-07
3125.0,4.121e-07
3130.0,1.162e-07
3135.0,2.397e-07
3140.0,6.193e-08
3145.0,6.059e-08
3150.0,1.282e-07
3155.0,1.128e-07
3160.0,1.928e-07
3165.0,4.565e-07
3170.0,6.073e-07
3175.0,1.78e-07
3180.0,2.75e-07
3185.0,1.438e-07
3190.0,7.747e-08
3195.0,4.182e-08
3200.0,5.902e-09
3205.0,3.856e-09
3210.0,1.606e-09
3215.0,6.531e-09
3220.0,2.293e-08
3225.0,2.637e-09
3230.0,4.379e-09
3235.0,1.227e-07
3240.0,5.579e-08
3245.0,1.059e-08
3250.0,3.907e-08
3255.0,1.675e-07
3260.0,1.672e-08
3265.0,3.618e-08
3270.0,1.704e-08
3275.0,1.028e-07
3280.0,4.367e-08
3285.0,2.027e-07
3290.0,1.426e-07
3295.0,1.756e-08
3300.0,2.602e-08
3305.0,5.974e-08
3310.0,5.673e-08
3315.0,8.222e-11
3320.0,5.181e-10
3325.0,4.764e-08
3330.0,7.564e-08
3335.0,1.458e-07
3340.0,5.148e-07
3345.0,5.012e-08
3350.0,1.524e-07
3355.0,5.085e-08
3360.0,7.911e-08
3365.0,2.039e-07
3370.0,5.314e-08
3375.0,5.752e-07
3380.0,6.997e-08
3385.0,6.971e-07
3390.0,2.056e-07
3395.0,6.47e-07
3400.0,8.47e-06
3405.0,5.831e-08
3410.0,9.565e-07
3415.0,1.022e-07
3420.0,2.323e-05
3425.0,3.884e-07
3430.0,1.362e-07
3435.0,1.857e-05
3440.0,1.18e-07
3445.0,7.324e-06
3450.0,2.073e-06
3455.0,3.423e-07
3460.0,2.89e-05
3465.0,3.711e-07
3470.0,2.701e-05
3475.0,3.378e-06
3480.0,3.675e-06
3485.0,2.197e-05
3490.0,1.907e-06
3495.0,2.26e-05
3500.0,2.097e-05
3505.0,1.825e-05
3510.0,2.041e-05
3515.0,1.873e-05
3520.0,3.317e-05
3525.0,3.191e-05
3530.0,1.574e-05
3535.0,1.916e-06
3540.0,1.41e-06
3545.0,1.417e-06
3550.0,1.375e-05
3555.0,2.896e-06
3560.0,2.233e-05
3565.0,1.063e-05
3570.0,2.715e-06
3575.0,1.361e-06
3580.0,1.073e-05
3585.0,2.678e-06
3590.0,7.493e-06
3595.0,2.106e-05
3600.0,3.001e-05
3605.0,1.192e-05
3610.0,8.675e-06
3615.0,2.276e-05
3620.0,7.721e-05
3625.0,1.659e-05
3630.0,2.659e-05
3635.0,3.231e-05
3640.0,9.168e-05
3645.0,2.252e-05
3650.0,2.669e-05
3655.0,5.816e-05
3660.0,7.204e-05
3665.0,1.699e-05
3670.0,7.772e-06
3675.0,2.441e-07
3680.0,4.952e-06
3685.0,1.246e-05
3690.0,1.095e-05
3695.0,4.089e-05
3700.0,9.492e-05
3705.0,8.624e-05
3710.0,2.052e-05
3715.0,3.375e-05
3720.0,6.537e-05
3725.0,7.772e-05
3730.0,3.147e-05
3735.0,1.569e-05
3740.0,3.001e-05
3745.0,7.237e-05
3750.0,4.332e-05
3755.0,3.025e-05
3760.0,1.797e-05
3765.0,2.042e-05
3770.0,3.126e-05
3775.0,3.388e-05
3780.0,5.519e-05
3785.0,3.169e-05
3790.0,1.36e-05
3795.0,4.21e-05
3800.0,7.623e-05
3805.0,5.494e-05
3810.0,2.398e-05
3815.0,1.895e-05
3820.0,7.474e-05
3825.0,7.455e-05
3830.0,7.758e-05
3835.0,1.454e-05
3840.0,4.333e-05
3845.0,2.846e-05
3850.0,2.883e-05
3855.0,2.241e-05
3860.0,6.422e-06
3865.0,6.561e-06
3870.0,1.503e-06
3875.0,4.139e-07
3880.0,2.345e-07
3885.0,3.923e-07
3890.0,5.084e-07
3895.0,2.025e-06
3900.0,8.362e-06
3905.0,6.8e-06
3910.0,1.074e-06
3915.0,8.003e-07
3920.0,8.646e-07
3925.0,7.913e-07
3930.0,1.202e-06
3935.0,2.529e-06
3940.0,3.191e-06
3945.0,4.663e-06
3950.0,6.933e-06
3955.0,8.581e-06
3960.0,1.03e-05
3965.0,1.192e-05
3970.0,1.033e-05
3975.0,7.055e-06
3980.0,6.029e-06
3985.0,7.027e-06
3990.0,6.071e-06
3995.0,4.505e-06
4000.0,3.343e-06
