interpolation:linear
wavelength,value
280.0,1.68e-23
280.5,5.867e-22
281.0,3.204e-21
281.5,1.079e-19
282.0,8.886e-19
282.5,3.446e-18
283.0,1.453e-17
283.5,2.241e-17
284.0,3.382e-16
284.5,9.759e-16
285.0,4.7e-16
285.5,2.6e-15
286.0,1.074e-14
286.5,5.08e-14
287.0,1.498e-13
287.5,5.973e-13
288.0,9.635e-12
288.5,1.845e-11
289.0,3.98e-11
289.5,1.059e-10
290.0,2.742e-10
290.5,5.34e-10
291.0,1.1e-09
291.5,3.047e-09
292.0,5.89e-09
292.5,7.794e-09
293.0,1.571e-08
293.5,3.575e-08
294.0,5.321e-08
294.5,1.066e-08
295.0,1.783e-08
295.5,2.821e-08
296.0,4.847e-08
296.5,6.063e-08
297.0,7.498e-08
297.5,1.762e-07
298.0,2.484e-07
298.5,2.294e-07
299.0,4.656e-07
299.5,6.689e-07
300.0,6.789e-07
300.5,9.061e-07
301.0,1.438e-06
301.5,2.037e-06
302.0,1.641e-06
302.5,1.806e-06
303.0,3.32e-06
303.5,4.225e-06
304.0,3.967e-06
304.5,5.984e-06
305.0,9.461e-06
305.5,1.129e-05
306.0,1.114e-05
306.5,1.437e-05
307.0,2.334e-05
307.5,3.444e-05
308.0,3.706e-05
308.5,4.639e-05
309.0,4.342e-05
309.5,4.665e-05
310.0,4.656e-05
310.5,7.551e-05
311.0,9.549e-05
311.5,9.268e-05
312.0,9.677e-05
312.5,0.0001229
313.0,0.0001369
313.5,0.0001297
314.0,0.0001731
314.5,0.0001832
315.0,0.0002491
315.5,0.0001902
316.0,0.0001938
316.5,0.0003198
317.0,0.0003961
317.5,0.0003961
318.0,0.0003404
318.5,0.0005126
319.0,0.000673
319.5,0.0004669
320.0,0.0005509
320.5,0.0008447
321.0,0.0009119
321.5,0.0008918
322.0,0.0007728
322.5,0.0006793
323.0,0.0007737
323.5,0.001943
324.0,0.002361
324.5,0.002162
325.0,0.0009976
325.5,0.001437
326.0,0.003354
326.5,0.003818
327.0,0.00363
327.5,0.0033
328.0,0.002464
328.5,0.003201
329.0,0.00459
329.5,0.005542
330.0,0.005318
330.5,0.003679
331.0,0.003591
331.5,0.004006
332.0,0.005125
332.5,0.005461
333.0,0.005217
333.5,0.004174
334.0,0.004187
334.5,0.00556
335.0,0.005653
335.5,0.007056
336.0,0.004881
336.5,0.005147
337.0,0.003985
337.5,0.00485
338.0,0.005303
338.5,0.006637
339.0,0.006623
339.5,0.006338
340.0,0.006888
340.5,0.006279
341.0,0.006577
341.5,0.006128
342.0,0.007354
342.5,0.00691
343.0,0.007532
343.5,0.007049
344.0,0.004845
344.5,0.005203
345.0,0.007007
345.5,0.007206
346.0,0.006155
346.5,0.006992
347.0,0.00745
347.5,0.006009
348.0,0.006916
348.5,0.006953
349.0,0.006467
349.5,0.006397
350.0,0.007922
350.5,0.008356
351.0,0.007431
351.5,0.007138
352.0,0.007726
352.5,0.006067
353.0,0.007671
353.5,0.008225
354.0,0.008556
354.5,0.008679
355.0,0.008636
355.5,0.007814
356.0,0.008188
356.5,0.006994
357.0,0.005778
357.5,0.00708
358.0,0.005617
358.5,0.004803
359.0,0.006714
359.5,0.008529
360.0,0.009053
360.5,0.007248
361.0,0.006617
361.5,0.007628
362.0,0.006602
362.5,0.009142
363.0,0.008214
363.5,0.007567
364.0,0.009258
364.5,0.007913
365.0,0.008059
365.5,0.01012
366.0,0.01073
366.5,0.01008
367.0,0.009826
367.5,0.0102
368.0,0.008926
368.5,0.009005
369.0,0.009729
369.5,0.01038
370.0,0.01107
370.5,0.008591
371.0,0.009183
371.5,0.01149
372.0,0.00763
372.5,0.009151
373.0,0.00931
373.5,0.006058
374.0,0.008806
374.5,0.007294
375.0,0.007093
375.5,0.01059
376.0,0.008784
376.5,0.009105
377.0,0.009643
377.5,0.01128
378.0,0.01224
378.5,0.01157
379.0,0.009548
379.5,0.008724
380.0,0.009072
380.5,0.01099
381.0,0.01102
381.5,0.008735
382.0,0.007759
382.5,0.006616
383.0,0.006127
383.5,0.005903
384.0,0.006513
384.5,0.009583
385.0,0.009506
385.5,0.008855
386.0,0.007586
386.5,0.009967
387.0,0.008284
387.5,0.009306
388.0,0.008595
388.5,0.008498
389.0,0.009175
389.5,0.01111
390.0,0.01116
390.5,0.01027
391.0,0.01209
391.5,0.01234
392.0,0.01039
392.5,0.009308
393.0,0.005181
393.5,0.003767
394.0,0.007666
394.5,0.009749
395.0,0.0119
395.5,0.01209
396.0,0.01049
396.5,0.006131
397.0,0.004603
397.5,0.009364
398.0,0.01312
398.5,0.01356
399.0,0.01469
399.5,0.01464
400.0,0.01521
401.0,0.01502
402.0,0.01585
403.0,0.01506
404.0,0.01484
405.0,0.01484
406.0,0.0146
407.0,0.01436
408.0,0.01492
409.0,0.01597
410.0,0.01395
411.0,0.01512
412.0,0.01625
413.0,0.01586
414.0,0.01605
415.0,0.01609
416.0,0.01637
417.0,0.01596
418.0,0.01567
419.0,0.01589
420.0,0.01582
421.0,0.01655
422.0,0.01572
423.0,0.01534
424.0,0.01621
425.0,0.01617
426.0,0.01575
427.0,0.01547
428.0,0.01508
429.0,0.0143
430.0,0.01252
431.0,0.0124
432.0,0.01599
433.0,0.01607
434.0,0.01493
435.0,0.0156
436.0,0.01758
437.0,0.01734
438.0,0.01577
439.0,0.01627
440.0,0.01676
441.0,0.01733
442.0,0.01856
443.0,0.01808
444.0,0.01849
445.0,0.01812
446.0,0.01733
447.0,0.01876
448.0,0.01903
449.0,0.01908
450.0,0.01958
451.0,0.0203
452.0,0.01957
453.0,0.01842
454.0,0.01924
455.0,0.01933
456.0,0.01976
457.0,0.02003
458.0,0.01927
459.0,0.01909
460.0,0.01907
461.0,0.01947
462.0,0.01962
463.0,0.01953
464.0,0.01928
465.0,0.01911
466.0,0.01932
467.0,0.01896
468.0,0.01914
469.0,0.01919
470.0,0.01854
471.0,0.01853
472.0,0.01953
473.0,0.01928
474.0,0.01929
475.0,0.01939
476.0,0.0187
477.0,0.01865
478.0,0.01907
479.0,0.01885
480.0,0.01879
481.0,0.01908
482.0,0.01916
483.0,0.01897
484.0,0.01864
485.0,0.01784
486.0,0.01567
487.0,0.01647
488.0,0.01807
489.0,0.01809
490.0,0.019
491.0,0.01865
492.0,0.0176
493.0,0.01818
494.0,0.01837
495.0,0.01853
496.0,0.01861
497.0,0.01883
498.0,0.01786
499.0,0.01797
500.0,0.01732
501.0,0.01688
502.0,0.01648
503.0,0.017
504.0,0.0164
505.0,0.01703
506.0,0.01759
507.0,0.01677
508.0,0.01632
509.0,0.01686
510.0,0.01685
511.0,0.01735
512.0,0.01756
513.0,0.01661
514.0,0.01647
515.0,0.01628
516.0,0.01621
517.0,0.01439
518.0,0.01511
519.0,0.01583
520.0,0.01637
521.0,0.01648
522.0,0.01643
523.0,0.01609
524.0,0.01655
525.0,0.01662
526.0,0.0158
527.0,0.01477
528.0,0.01553
529.0,0.01627
530.0,0.01596
531.0,0.01613
532.0,0.01553
533.0,0.01506
534.0,0.01553
535.0,0.01591
536.0,0.01611
537.0,0.01551
538.0,0.01579
539.0,0.01563
540.0,0.01493
541.0,0.0149
542.0,0.01532
543.0,0.01519
544.0,0.01535
545.0,0.0153
546.0,0.01529
547.0,0.01533
548.0,0.01519
549.0,0.01525
550.0,0.01543
551.0,0.01525
552.0,0.01536
553.0,0.01507
554.0,0.01541
555.0,0.01541
556.0,0.01517
557.0,0.01464
558.0,0.01445
559.0,0.0141
560.0,0.01418
561.0,0.01427
562.0,0.01407
563.0,0.01435
564.0,0.01388
565.0,0.01368
566.0,0.01341
567.0,0.01355
568.0,0.01321
569.0,0.01271
570.0,0.01265
571.0,0.01256
572.0,0.01268
573.0,0.01276
574.0,0.01264
575.0,0.01233
576.0,0.0122
577.0,0.01236
578.0,0.01228
579.0,0.0125
580.0,0.01302
581.0,0.01332
582.0,0.01377
583.0,0.01397
584.0,0.01421
585.0,0.01394
586.0,0.01369
587.0,0.01389
588.0,0.01334
589.0,0.01101
590.0,0.01143
591.0,0.0126
592.0,0.0121
593.0,0.01265
594.0,0.0124
595.0,0.01187
596.0,0.01306
597.0,0.01251
598.0,0.01268
599.0,0.01284
600.0,0.01289
601.0,0.01289
602.0,0.01286
603.0,0.01319
604.0,0.0135
605.0,0.01353
606.0,0.01355
607.0,0.01378
608.0,0.01373
609.0,0.01386
610.0,0.01387
611.0,0.01406
612.0,0.01412
613.0,0.01405
614.0,0.01395
615.0,0.01435
616.0,0.01395
617.0,0.01398
618.0,0.01459
619.0,0.01449
620.0,0.0146
621.0,0.01464
622.0,0.01448
623.0,0.01426
624.0,0.01398
625.0,0.01391
626.0,0.01405
627.0,0.01398
628.0,0.01061
629.0,0.01257
630.0,0.0122
631.0,0.01331
632.0,0.01345
633.0,0.01423
634.0,0.01447
635.0,0.01495
636.0,0.01495
637.0,0.01542
638.0,0.01585
639.0,0.01584
640.0,0.01592
641.0,0.01607
642.0,0.01621
643.0,0.01653
644.0,0.01664
645.0,0.0165
646.0,0.01591
647.0,0.01461
648.0,0.01479
649.0,0.01424
650.0,0.01564
651.0,0.01664
652.0,0.0148
653.0,0.01663
654.0,0.01669
655.0,0.01518
656.0,0.01387
657.0,0.01457
658.0,0.01661
659.0,0.0172
660.0,0.01732
661.0,0.01783
662.0,0.0182
663.0,0.01794
664.0,0.0182
665.0,0.01829
666.0,0.01844
667.0,0.01853
668.0,0.01874
669.0,0.0191
670.0,0.01913
671.0,0.01924
672.0,0.01917
673.0,0.01956
674.0,0.01958
675.0,0.0195
676.0,0.01973
677.0,0.01962
678.0,0.01977
679.0,0.01953
680.0,0.01974
681.0,0.01962
682.0,0.01962
683.0,0.01958
684.0,0.01943
685.0,0.01977
686.0,0.01945
687.0,0.005791
688.0,0.00709
689.0,0.007136
690.0,0.007884
691.0,0.009286
692.0,0.01118
693.0,0.01151
694.0,0.01231
695.0,0.01467
696.0,0.01483
697.0,0.01908
698.0,0.01794
699.0,0.0155
700.0,0.01538
701.0,0.01437
702.0,0.01485
703.0,0.01579
704.0,0.0174
705.0,0.01723
706.0,0.0177
707.0,0.01785
708.0,0.01835
709.0,0.01917
710.0,0.0181
711.0,0.01859
712.0,0.01932
713.0,0.01819
714.0,0.01886
715.0,0.01743
716.0,0.01671
717.0,0.009397
718.0,0.009065
719.0,0.008603
720.0,0.008144
721.0,0.01094
722.0,0.01404
723.0,0.01259
724.0,0.0104
725.0,0.009693
726.0,0.009342
727.0,0.01173
728.0,0.008804
729.0,0.01057
730.0,0.01039
731.0,0.009756
732.0,0.0122
733.0,0.01458
734.0,0.016
735.0,0.0154
736.0,0.01445
737.0,0.01503
738.0,0.01781
739.0,0.01745
740.0,0.01875
741.0,0.01898
742.0,0.0196
743.0,0.02011
744.0,0.02026
745.0,0.02071
746.0,0.02082
747.0,0.021
748.0,0.02101
749.0,0.02082
750.0,0.02083
751.0,0.02063
752.0,0.02078
753.0,0.02095
754.0,0.02096
755.0,0.02079
756.0,0.02088
757.0,0.02088
758.0,0.02052
759.0,0.01747
760.0,0.001103
761.0,0.0005885
762.0,0.003235
763.0,0.001645
764.0,0.002434
765.0,0.003201
766.0,0.003934
767.0,0.005585
768.0,0.01025
769.0,0.01265
770.0,0.01676
771.0,0.01908
772.0,0.0199
773.0,0.02026
774.0,0.02035
775.0,0.02034
776.0,0.02068
777.0,0.02045
778.0,0.0203
779.0,0.02034
780.0,0.02028
781.0,0.02033
782.0,0.0205
783.0,0.02019
784.0,0.02038
785.0,0.02011
786.0,0.02006
787.0,0.01809
788.0,0.01768
789.0,0.01732
790.0,0.0153
791.0,0.01678
792.0,0.01704
793.0,0.0166
794.0,0.01904
795.0,0.01878
796.0,0.01535
797.0,0.01611
798.0,0.01876
799.0,0.01799
800.0,0.01642
801.0,0.01586
802.0,0.01598
803.0,0.01498
804.0,0.01574
805.0,0.01655
806.0,0.01871
807.0,0.01803
808.0,0.01789
809.0,0.01614
810.0,0.01595
811.0,0.0136
812.0,0.01245
813.0,0.01176
814.0,0.008201
815.0,0.008168
816.0,0.008598
817.0,0.008553
818.0,0.00828
819.0,0.009266
820.0,0.01015
821.0,0.01311
822.0,0.01154
823.0,0.004308
824.0,0.01028
825.0,0.01466
826.0,0.01084
827.0,0.01334
828.0,0.007902
829.0,0.01226
830.0,0.01193
831.0,0.01161
832.0,0.01092
833.0,0.01198
834.0,0.01119
835.0,0.01519
836.0,0.01271
837.0,0.015
838.0,0.0134
839.0,0.0156
840.0,0.01652
841.0,0.01551
842.0,0.01635
843.0,0.01788
844.0,0.01699
845.0,0.01818
846.0,0.01867
847.0,0.01859
848.0,0.01792
849.0,0.01745
850.0,0.01664
851.0,0.01689
852.0,0.01736
853.0,0.0171
854.0,0.01452
855.0,0.01629
856.0,0.01772
857.0,0.01848
858.0,0.0182
859.0,0.01864
860.0,0.01884
861.0,0.01868
862.0,0.01907
863.0,0.0195
864.0,0.0186
865.0,0.0185
866.0,0.01664
867.0,0.01738
868.0,0.01894
869.0,0.0186
870.0,0.01915
871.0,0.01887
872.0,0.01886
873.0,0.01884
874.0,0.01863
875.0,0.0182
876.0,0.01838
877.0,0.01857
878.0,0.01873
879.0,0.01845
880.0,0.018
881.0,0.01749
882.0,0.01761
883.0,0.01801
884.0,0.01779
885.0,0.01771
886.0,0.01587
887.0,0.01708
888.0,0.01674
889.0,0.01795
890.0,0.01663
891.0,0.01741
892.0,0.0148
893.0,0.01379
894.0,0.01095
895.0,0.00843
896.0,0.007706
897.0,0.00614
898.0,0.006737
899.0,0.003692
900.0,0.00652
901.0,0.003943
902.0,0.004419
903.0,0.00518
904.0,0.01013
905.0,0.009004
906.0,0.008187
907.0,0.004691
908.0,0.005673
909.0,0.005642
910.0,0.003586
911.0,0.005118
912.0,0.007
913.0,0.00374
914.0,0.005306
915.0,0.003662
916.0,0.004114
917.0,0.00507
918.0,0.003721
919.0,0.00562
920.0,0.007958
921.0,0.007556
922.0,0.005556
923.0,0.007543
924.0,0.005106
925.0,0.004792
926.0,0.004836
927.0,0.005884
928.0,0.002213
929.0,0.001734
930.0,0.001149
931.0,0.001065
932.0,0.0007457
933.0,0.0005985
934.0,0.0003243
935.0,0.0006081
936.0,0.0003765
937.0,0.0003799
938.0,0.0004656
939.0,0.001002
940.0,0.001259
941.0,0.0008877
942.0,0.001033
943.0,0.0006621
944.0,0.000705
945.0,0.000904
946.0,0.0004464
947.0,0.0008956
948.0,0.0006591
949.0,0.00123
950.0,0.0003231
951.0,0.001213
952.0,0.0006493
953.0,0.0008312
954.0,0.001024
955.0,0.0009679
956.0,0.0009234
957.0,0.0006471
958.0,0.001434
959.0,0.0009891
960.0,0.001181
961.0,0.00149
962.0,0.001383
963.0,0.002056
964.0,0.001761
965.0,0.001784
966.0,0.002227
967.0,0.00238
968.0,0.007522
969.0,0.005043
970.0,0.005947
971.0,0.007215
972.0,0.007165
973.0,0.003813
974.0,0.003583
975.0,0.004631
976.0,0.003873
977.0,0.007024
978.0,0.004596
979.0,0.005629
980.0,0.005465
981.0,0.007771
982.0,0.006742
983.0,0.00602
984.0,0.01022
985.0,0.006307
986.0,0.01292
987.0,0.01001
988.0,0.01083
989.0,0.01391
990.0,0.009813
991.0,0.01384
992.0,0.01416
993.0,0.01157
994.0,0.01446
995.0,0.01488
996.0,0.01442
997.0,0.01454
998.0,0.01431
999.0,0.01441
1000.0,0.014
1001.0,0.01461
1002.0,0.01173
1003.0,0.01432
1004.0,0.01306
1005.0,0.01342
1006.0,0.0139
1007.0,0.01413
1008.0,0.01376
1009.0,0.01325
1010.0,0.01314
1011.0,0.01396
1012.0,0.01373
1013.0,0.01423
1014.0,0.01414
1015.0,0.01405
1016.0,0.01385
1017.0,0.01372
1018.0,0.01404
1019.0,0.01269
1020.0,0.01388
1021.0,0.014
1022.0,0.01356
1023.0,0.01376
1024.0,0.01263
1025.0,0.01394
1026.0,0.01349
1027.0,0.01378
1028.0,0.01359
1029.0,0.0132
1030.0,0.01363
1031.0,0.01358
1032.0,0.0135
1033.0,0.01339
1034.0,0.01335
1035.0,0.01341
1036.0,0.01329
1037.0,0.01317
1038.0,0.01317
1039.0,0.01306
1040.0,0.01299
1041.0,0.01292
1042.0,0.01282
1043.0,0.01271
1044.0,0.01267
1045.0,0.01242
1046.0,0.0122
1047.0,0.01222
1048.0,0.01218
1049.0,0.01204
1050.0,0.01187
1051.0,0.01172
1052.0,0.01155
1053.0,0.0113
1054.0,0.01116
1055.0,0.01098
1056.0,0.01073
1057.0,0.01055
1058.0,0.01014
1059.0,0.009952
1060.0,0.00986
1061.0,0.009741
1062.0,0.009692
1063.0,0.009391
1064.0,0.009561
1065.0,0.00909
1066.0,0.009208
1067.0,0.009286
1068.0,0.008834
1069.0,0.008831
1070.0,0.009199
1071.0,0.009799
1072.0,0.00932
1073.0,0.009231
1074.0,0.01026
1075.0,0.008037
1076.0,0.01031
1077.0,0.009203
1078.0,0.008281
1079.0,0.01061
1080.0,0.008861
1081.0,0.007687
1082.0,0.009567
1083.0,0.009898
1084.0,0.007672
1085.0,0.009189
1086.0,0.00686
1087.0,0.007643
1088.0,0.009749
1089.0,0.007482
1090.0,0.006998
1091.0,0.008919
1092.0,0.009226
1093.0,0.0049
1094.0,0.007837
1095.0,0.004683
1096.0,0.003967
1097.0,0.009233
1098.0,0.003939
1099.0,0.0038
1100.0,0.002793
1101.0,0.003311
1102.0,0.002679
1103.0,0.002088
1104.0,0.002522
1105.0,0.002953
1106.0,0.001042
1107.0,0.002819
1108.0,0.001258
1109.0,0.001345
1110.0,0.001829
1111.0,0.0006042
1112.0,0.001531
1113.0,0.0004276
1114.0,0.0004679
1115.0,0.0003646
1116.0,0.0002591
1117.0,9.281e-05
1118.0,0.0002815
1119.0,0.0001368
1120.0,0.0001715
1121.0,0.0002277
1122.0,9.431e-05
1123.0,0.0001535
1124.0,0.0001291
1125.0,0.0001682
1126.0,5.717e-05
1127.0,0.0001885
1128.0,0.0001111
1129.0,0.0001177
1130.0,7.67e-05
1131.0,0.0003568
1132.0,0.0002783
1133.0,0.0001737
1134.0,4.329e-05
1135.0,1.622e-05
1136.0,0.0001429
1137.0,0.0003427
1138.0,0.0002402
1139.0,0.000375
1140.0,0.0003026
1141.0,0.0002264
1142.0,0.000261
1143.0,0.0003742
1144.0,0.0001271
1145.0,0.000161
1146.0,0.0001731
1147.0,5.952e-05
1148.0,0.0003184
1149.0,0.0002497
1150.0,0.0001346
1151.0,0.0002288
1152.0,0.0002843
1153.0,0.0002837
1154.0,0.000152
1155.0,0.0003851
1156.0,0.000348
1157.0,0.0004775
1158.0,0.000454
1159.0,0.0005178
1160.0,0.0004983
1161.0,0.001085
1162.0,0.001328
1163.0,0.002563
1164.0,0.002103
1165.0,0.001189
1166.0,0.00206
1167.0,0.002214
1168.0,0.002227
1169.0,0.002632
1170.0,0.003674
1171.0,0.002972
1172.0,0.004696
1173.0,0.003205
1174.0,0.001283
1175.0,0.004025
1176.0,0.006845
1177.0,0.004799
1178.0,0.002289
1179.0,0.00643
1180.0,0.004846
1181.0,0.003633
1182.0,0.001177
1183.0,0.003928
1184.0,0.004113
1185.0,0.003049
1186.0,0.004927
1187.0,0.003476
1188.0,0.001165
1189.0,0.003574
1190.0,0.005271
1191.0,0.003407
1192.0,0.005571
1193.0,0.005606
1194.0,0.005241
1195.0,0.003716
1196.0,0.00295
1197.0,0.005342
1198.0,0.005011
1199.0,0.002079
1200.0,0.004419
1201.0,0.00322
1202.0,0.004688
1203.0,0.003352
1204.0,0.004002
1205.0,0.005897
1206.0,0.007255
1207.0,0.004089
1208.0,0.004704
1209.0,0.004891
1210.0,0.00633
1211.0,0.005231
1212.0,0.003135
1213.0,0.005981
1214.0,0.003727
1215.0,0.003353
1216.0,0.006613
1217.0,0.005838
1218.0,0.006517
1219.0,0.006084
1220.0,0.006459
1221.0,0.007198
1222.0,0.006571
1223.0,0.006288
1224.0,0.005625
1225.0,0.006461
1226.0,0.007459
1227.0,0.004893
1228.0,0.008294
1229.0,0.007282
1230.0,0.006903
1231.0,0.00871
1232.0,0.008645
1233.0,0.00583
1234.0,0.009332
1235.0,0.008717
1236.0,0.00923
1237.0,0.008011
1238.0,0.009203
1239.0,0.009102
1240.0,0.009291
1241.0,0.008606
1242.0,0.009096
1243.0,0.009106
1244.0,0.008847
1245.0,0.009083
1246.0,0.009078
1247.0,0.008744
1248.0,0.008416
1249.0,0.008737
1250.0,0.008398
1251.0,0.007754
1252.0,0.008473
1253.0,0.007172
1254.0,0.006451
1255.0,0.008193
1256.0,0.005904
1257.0,0.005504
1258.0,0.007061
1259.0,0.004301
1260.0,0.004593
1261.0,0.002438
1262.0,0.001742
1263.0,0.001742
1264.0,0.0008335
1265.0,0.001723
1266.0,0.001129
1267.0,0.001501
1268.0,0.000933
1269.0,0.0001917
1270.0,0.00133
1271.0,0.002668
1272.0,0.002747
1273.0,0.002545
1274.0,0.002886
1275.0,0.003137
1276.0,0.003631
1277.0,0.004307
1278.0,0.005296
1279.0,0.005372
1280.0,0.005512
1281.0,0.005918
1282.0,0.006513
1283.0,0.006784
1284.0,0.007081
1285.0,0.00726
1286.0,0.007728
1287.0,0.007101
1288.0,0.007299
1289.0,0.004949
1290.0,0.007239
1291.0,0.007749
1292.0,0.004203
1293.0,0.007033
1294.0,0.006617
1295.0,0.004981
1296.0,0.003912
1297.0,0.003286
1298.0,0.004815
1299.0,0.006678
1300.0,0.002672
1301.0,0.002569
1302.0,0.004778
1303.0,0.003577
1304.0,0.001172
1305.0,0.004228
1306.0,0.003449
1307.0,0.001685
1308.0,0.00291
1309.0,0.003038
1310.0,0.001706
1311.0,0.003065
1312.0,0.002396
1313.0,0.001692
1314.0,0.0007966
1315.0,0.0007758
1316.0,0.002484
1317.0,0.002675
1318.0,0.003132
1319.0,0.001004
1320.0,0.000731
1321.0,0.001402
1322.0,0.0008279
1323.0,0.0003017
1324.0,0.0009922
1325.0,0.001382
1326.0,0.0009481
1327.0,0.0007079
1328.0,0.0003018
1329.0,0.0001352
1330.0,0.0002036
1331.0,0.0001006
1332.0,9.861e-05
1333.0,0.0001428
1334.0,0.000165
1335.0,0.0002
1336.0,0.0001383
1337.0,0.0001281
1338.0,0.0001288
1339.0,0.0001286
1340.0,0.0001278
1341.0,0.0001119
1342.0,0.0001187
1343.0,7.741e-05
1344.0,4.624e-05
1345.0,6.641e-05
1346.0,3.276e-05
1347.0,3.319e-05
1348.0,2.14e-06
1349.0,7.676e-06
1350.0,7.958e-06
1351.0,1.924e-06
1352.0,5.175e-07
1353.0,2.634e-08
1354.0,9.054e-08
1355.0,7.29e-10
1356.0,1.276e-08
1357.0,1.939e-08
1358.0,8.561e-10
1359.0,1.079e-10
1360.0,3.898e-10
1361.0,4.361e-13
1362.0,1.193e-15
1363.0,5.242e-10
1364.0,2.164e-10
1365.0,4.166e-16
1366.0,2.272e-09
1367.0,9.276e-10
1368.0,3.217e-18
1369.0,7.978e-11
1370.0,3.929e-11
1371.0,2.228e-12
1372.0,5.033e-10
1373.0,1.014e-08
1374.0,4.703e-08
1375.0,8.53e-08
1376.0,7.651e-08
1377.0,3.495e-08
1378.0,3.417e-07
1379.0,1.46e-08
1380.0,2.099e-08
1381.0,5.468e-10
1382.0,4.414e-10
1383.0,6.599e-12
1384.0,8.653e-11
1385.0,4.138e-10
1386.0,3.892e-10
1387.0,4.708e-08
1388.0,9.261e-10
1389.0,1.59e-07
1390.0,1.365e-07
1391.0,9.075e-08
1392.0,5.883e-09
1393.0,3.117e-08
1394.0,1.606e-08
1395.0,1.177e-10
1396.0,5.69e-13
1397.0,1.227e-08
1398.0,3.629e-07
1399.0,2.296e-07
1400.0,2.434e-13
1401.0,1.01e-12
1402.0,6.361e-07
1403.0,7.968e-07
1404.0,2.421e-07
1405.0,5.578e-11
1406.0,6.258e-07
1407.0,5.515e-08
1408.0,5.092e-07
1409.0,1.697e-07
1410.0,1.359e-07
1411.0,6.854e-07
1412.0,9.247e-07
1413.0,9.625e-06
1414.0,1.061e-07
1415.0,5.068e-08
1416.0,1.591e-05
1417.0,4.698e-06
1418.0,5.32e-06
1419.0,8.188e-07
1420.0,3.233e-06
1421.0,3.488e-06
1422.0,2.045e-05
1423.0,3.924e-06
1424.0,7.365e-06
1425.0,1.076e-05
1426.0,1.231e-05
1427.0,2.29e-05
1428.0,1.603e-06
1429.0,1.687e-05
1430.0,2.911e-05
1431.0,3.2e-05
1432.0,1.246e-06
1433.0,2.008e-05
1434.0,1.01e-05
1435.0,9.789e-06
1436.0,1.928e-05
1437.0,1.474e-05
1438.0,6.085e-06
1439.0,2.621e-05
1440.0,1.957e-05
1441.0,1.463e-05
1442.0,1.621e-05
1443.0,2.068e-05
1444.0,2.88e-05
1445.0,2.212e-05
1446.0,9.813e-06
1447.0,1.547e-05
1448.0,5.481e-05
1449.0,4.709e-05
1450.0,1.14e-05
1451.0,4.488e-06
1452.0,2.772e-05
1453.0,3.653e-05
1454.0,6.457e-05
1455.0,2.959e-05
1456.0,3.945e-05
1457.0,5.383e-05
1458.0,6.62e-05
1459.0,7.733e-05
1460.0,3.916e-05
1461.0,3.986e-05
1462.0,5.948e-05
1463.0,1.862e-05
1464.0,7.148e-05
1465.0,4.275e-05
1466.0,2.799e-05
1467.0,1.432e-05
1468.0,3.314e-05
1469.0,4.111e-05
1470.0,1.975e-05
1471.0,7.004e-06
1472.0,1.877e-05
1473.0,2.919e-05
1474.0,4.386e-05
1475.0,8.625e-05
1476.0,2.909e-05
1477.0,2.9e-05
1478.0,2.717e-05
1479.0,5.339e-05
1480.0,2.484e-05
1481.0,5.005e-05
1482.0,2.435e-05
1483.0,6.655e-05
1484.0,6.945e-05
1485.0,5.599e-05
1486.0,5.303e-05
1487.0,2.349e-05
1488.0,4.443e-05
1489.0,0.000102
1490.0,0.0001697
1491.0,0.0002073
1492.0,8.662e-05
1493.0,0.0001627
1494.0,0.0003952
1495.0,0.0002225
1496.0,0.0001598
1497.0,0.000918
1498.0,0.0005185
1499.0,0.0005173
1500.0,0.001793
1501.0,0.001617
1502.0,0.001483
1503.0,0.0005887
1504.0,0.0001147
1505.0,0.0005258
1506.0,0.002248
1507.0,0.00203
1508.0,0.002073
1509.0,0.0007604
1510.0,0.002757
1511.0,0.001883
1512.0,0.0029
1513.0,0.001299
1514.0,0.001132
1515.0,0.003295
1516.0,0.002863
1517.0,0.001824
1518.0,0.002451
1519.0,0.001657
1520.0,0.002464
1521.0,0.005028
1522.0,0.003235
1523.0,0.005245
1524.0,0.003908
1525.0,0.002636
1526.0,0.002755
1527.0,0.003379
1528.0,0.004736
1529.0,0.00401
1530.0,0.003137
1531.0,0.003748
1532.0,0.005378
1533.0,0.005731
1534.0,0.005787
1535.0,0.005173
1536.0,0.005422
1537.0,0.00538
1538.0,0.005715
1539.0,0.005432
1540.0,0.005719
1541.0,0.005579
1542.0,0.00531
1543.0,0.005739
1544.0,0.005534
1545.0,0.005914
1546.0,0.005271
1547.0,0.005597
1548.0,0.005627
1549.0,0.005946
1550.0,0.005763
1551.0,0.005598
1552.0,0.005555
1553.0,0.005765
1554.0,0.005542
1555.0,0.005754
1556.0,0.005636
1557.0,0.005783
1558.0,0.005772
1559.0,0.005707
1560.0,0.005655
1561.0,0.005728
1562.0,0.005514
1563.0,0.005445
1564.0,0.005401
1565.0,0.005757
1566.0,0.005476
1567.0,0.005553
1568.0,0.005413
1569.0,0.005694
1570.0,0.005665
1571.0,0.005656
1572.0,0.005635
1573.0,0.005464
1574.0,0.005132
1575.0,0.005
1576.0,0.004552
1577.0,0.004375
1578.0,0.004419
1579.0,0.004129
1580.0,0.004303
1581.0,0.004261
1582.0,0.004272
1583.0,0.004174
1584.0,0.004878
1585.0,0.005074
1586.0,0.004953
1587.0,0.004808
1588.0,0.005218
1589.0,0.005117
1590.0,0.00502
1591.0,0.005267
1592.0,0.005145
1593.0,0.005468
1594.0,0.005333
1595.0,0.005373
1596.0,0.005102
1597.0,0.00491
1598.0,0.00543
1599.0,0.005421
1600.0,0.005518
1601.0,0.005251
1602.0,0.005097
1603.0,0.005491
1604.0,0.005413
1605.0,0.005469
1606.0,0.005381
1607.0,0.005448
1608.0,0.005068
1609.0,0.00522
1610.0,0.005076
1611.0,0.005153
1612.0,0.005345
1613.0,0.005112
1614.0,0.005261
1615.0,0.005177
1616.0,0.005091
1617.0,0.00492
1618.0,0.005285
1619.0,0.004853
1620.0,0.005118
1621.0,0.005067
1622.0,0.005124
1623.0,0.005243
1624.0,0.004994
1625.0,0.004926
1626.0,0.004926
1627.0,0.005069
1628.0,0.004875
1629.0,0.005004
1630.0,0.004876
1631.0,0.004471
1632.0,0.004719
1633.0,0.003763
1634.0,0.00477
1635.0,0.003716
1636.0,0.004312
1637.0,0.004558
1638.0,0.002842
1639.0,0.004425
1640.0,0.00263
1641.0,0.004142
1642.0,0.004633
1643.0,0.002152
1644.0,0.004841
1645.0,0.003138
1646.0,0.00208
1647.0,0.004804
1648.0,0.002122
1649.0,0.004071
1650.0,0.004288
1651.0,0.001713
1652.0,0.003905
1653.0,0.004484
1654.0,0.002231
1655.0,0.004258
1656.0,0.003299
1657.0,0.003718
1658.0,0.004591
1659.0,0.004277
1660.0,0.004285
1661.0,0.00436
1662.0,0.003426
1663.0,0.004519
1664.0,0.004341
1665.0,0.00218
1666.0,0.0002246
1667.0,0.002212
1668.0,0.003894
1669.0,0.00406
1670.0,0.004463
1671.0,0.003917
1672.0,0.004277
1673.0,0.004444
1674.0,0.003501
1675.0,0.003729
1676.0,0.004223
1677.0,0.003632
1678.0,0.002878
1679.0,0.004351
1680.0,0.003854
1681.0,0.002878
1682.0,0.004247
1683.0,0.00439
1684.0,0.001692
1685.0,0.004337
1686.0,0.004311
1687.0,0.002911
1688.0,0.003987
1689.0,0.004094
1690.0,0.00371
1691.0,0.001872
1692.0,0.003386
1693.0,0.00433
1694.0,0.00302
1695.0,0.003952
1696.0,0.004255
1697.0,0.001232
1698.0,0.003739
1699.0,0.003857
1700.0,0.003148
1702.0,0.003704
1705.0,0.002903
1710.0,0.002579
1715.0,0.002876
1720.0,0.003034
1725.0,0.001766
1730.0,0.002435
1735.0,0.001932
1740.0,0.002019
1745.0,0.00219
1750.0,0.001333
1755.0,0.001519
1760.0,0.001127
1765.0,0.0007868
1770.0,0.0006264
1775.0,0.0003989
1780.0,0.0002059
1785.0,6.969e-05
1790.0,5.051e-05
1795.0,8.894e-06
1800.0,6.118e-06
1805.0,2.429e-06
1810.0,1.577e-06
1815.0,4.563e-07
1820.0,1.141e-07
1825.0,1.49e-07
1830.0,3.631e-10
1835.0,5.498e-10
1840.0,3.209e-12
1845.0,3.431e-10
1850.0,1.549e-10
1855.0,1.48e-11
1860.0,8.483e-10
1865.0,1.182e-09
1870.0,6.471e-15
1875.0,1.169e-14
1880.0,6.227e-09
1885.0,3.319e-09
1890.0,1.82e-08
1895.0,1.056e-08
1900.0,4.515e-11
1905.0,3.075e-11
1910.0,1.49e-09
1915.0,1.451e-09
1920.0,3.806e-08
1925.0,8.942e-08
1930.0,5.165e-08
1935.0,3.937e-07
1940.0,3.91e-07
1945.0,1.61e-06
1950.0,3.139e-06
1955.0,2.793e-06
1960.0,4.953e-06
1965.0,6.598e-05
1970.0,0.0001646
1975.0,0.0002149
1980.0,0.0001082
1985.0,0.0001951
1990.0,0.0004935
1995.0,0.0004604
2000.0,0.0007733
2005.0,0.0003413
2010.0,0.001624
2015.0,0.0004053
2020.0,0.0007435
2025.0,0.001276
2030.0,0.0008497
2035.0,0.00162
2040.0,0.001212
2045.0,0.001319
2050.0,0.001846
2055.0,0.001302
2060.0,0.001145
2065.0,0.001426
2070.0,0.001242
2075.0,0.001746
2080.0,0.001753
2085.0,0.001726
2090.0,0.001847
2095.0,0.001654
2100.0,0.001186
2105.0,0.001661
2110.0,0.0013
2115.0,0.001693
2120.0,0.001177
2125.0,0.001461
2130.0,0.001714
2135.0,0.001819
2140.0,0.001874
2145.0,0.001845
2150.0,0.001156
2155.0,0.001134
2160.0,0.001225
2165.0,0.00103
2170.0,0.001328
2175.0,0.001005
2180.0,0.001256
2185.0,0.0007974
2190.0,0.00118
2195.0,0.001084
2200.0,0.0002793
2205.0,0.0007109
2210.0,0.001433
2215.0,0.001015
2220.0,0.001119
2225.0,0.0009497
2230.0,0.0009688
2235.0,0.0008201
2240.0,0.0007907
2245.0,0.0005129
2250.0,0.0007727
2255.0,0.0003517
2260.0,0.0003134
2265.0,0.0004952
2270.0,0.0002298
2275.0,0.0002045
2280.0,0.0004708
2285.0,0.0002088
2290.0,0.0002245
2295.0,0.0002035
2300.0,0.0001035
2305.0,0.0001244
2310.0,0.0005112
2315.0,0.0001321
2320.0,4.525e-05
2325.0,0.0002885
2330.0,0.0001685
2335.0,0.0002293
2340.0,3.485e-05
2345.0,5.066e-05
2350.0,2.606e-05
2355.0,3.727e-05
2360.0,5.72e-05
2365.0,0.0001494
2370.0,2.614e-06
2375.0,3.185e-05
2380.0,7.094e-05
2385.0,9.519e-06
2390.0,1.352e-05
2395.0,1.919e-05
2400.0,2.441e-05
2405.0,2.919e-05
2410.0,2.631e-05
2415.0,3.368e-06
2420.0,2.726e-06
2425.0,4.215e-06
2430.0,1.24e-05
2435.0,9.022e-07
2440.0,1.418e-05
2445.0,1.37e-06
2450.0,7.757e-07
2455.0,4.645e-06
2460.0,2.37e-06
2465.0,1.391e-06
2470.0,8.923e-07
2475.0,8.673e-07
2480.0,4.074e-07
2485.0,2.632e-07
2490.0,1.514e-07
2495.0,1.309e-07
2500.0,3.248e-07
2505.0,6.604e-08
2510.0,9.719e-08
2515.0,2.061e-08
2520.0,1.156e-08
2525.0,1.319e-09
2530.0,9.18e-12
2535.0,2.03e-12
2540.0,4.817e-12
2545.0,3.736e-16
2550.0,1.515e-18
2555.0,7.269e-15
2560.0,2.182e-16
2565.0,4.8840000000000004e-20
2570.0,1.454e-24
2575.0,9.200000000000001e-35
2580.0,9.593999999999999e-29
2585.0,2.0050000000000002e-42
2590.0,1.251e-38
2595.0,2.4339999999999998e-40
2600.0,2.0040000000000002e-35
2605.0,2.215e-42
2610.0,7.624e-42
2615.0,0.0
2620.0,6.718e-36
2625.0,1.23e-35
2630.0,0.0
2635.0,6.406999999999999e-22
2640.0,1.3869999999999999e-22
2645.0,6.046e-25
2650.0,6.022000000000001e-26
2655.0,7.242e-35
2660.0,6.097e-32
2665.0,5.605e-45
2670.0,0.0
2675.0,2.943e-44
2680.0,1.236e-30
2685.0,1.181e-31
2690.0,4.4190000000000006e-31
2695.0,1.734e-33
2700.0,5.05e-29
2705.0,1.432e-26
2710.0,1.14e-31
2715.0,1.4399999999999998e-29
2720.0,0.0
2725.0,3.225e-27
2730.0,9.400000000000001e-25
2735.0,1.072e-26
2740.0,1.936e-32
2745.0,2.497e-27
2750.0,1.3990000000000002e-26
2755.0,2.2520000000000003e-28
2760.0,3.373e-23
2765.0,1.583e-29
2770.0,7.78e-27
2775.0,6.558e-23
2780.0,4.472e-21
2785.0,1.6790000000000002e-20
2790.0,3.829e-18
2795.0,8.422e-19
2800.0,2.73e-15
2805.0,5.027e-17
2810.0,2.016e-13
2815.0,6.013e-14
2820.0,7.347e-16
2825.0,2.484e-09
2830.0,1.401e-10
2835.0,1.93e-15
2840.0,4.216e-12
2845.0,1.43e-09
2850.0,2.474e-11
2855.0,9.883e-12
2860.0,5.661e-10
2865.0,3.789e-09
2870.0,1.164e-10
2875.0,9.221e-09
2880.0,5.811e-09
2885.0,9.573e-09
2890.0,4.07e-09
2895.0,6.937e-08
2900.0,1.933e-08
2905.0,2.238e-09
2910.0,7.075e-08
2915.0,3.003e-08
2920.0,7.451e-08
2925.0,2.656e-08
2930.0,1.608e-07
2935.0,1.773e-07
2940.0,3.969e-08
2945.0,3.408e-08
2950.0,1.376e-07
2955.0,6.126e-08
2960.0,1.217e-07
2965.0,2.065e-07
2970.0,8.062e-09
2975.0,2.044e-08
2980.0,3.181e-08
2985.0,1.899e-07
2990.0,3.574e-07
2995.0,1.088e-07
3000.0,2.099e-07
3005.0,6.962e-08
3010.0,1.875e-07
3015.0,1.405e-07
3020.0,1.254e-08
3025.0,1.916e-07
3030.0,1.523e-07
3035.0,5.725e-08
3040.0,4.476e-08
3045.0,9.615e-08
3050.0,2.178e-08
3055.0,5.33e-09
3060.0,1.496e-07
3065.0,6.334e-08
3070.0,3.559e-08
3075.0,1.397e-07
3080.0,8.1e-08
3085.0,3.577e-08
3090.0,4.864e-08
3095.0,1.197e-08
3100.0,9.723e-08
3105.0,1.822e-08
3110.0,1.525e-08
3115.0,4.575e-08
3120.0,2.262e-07
3125.0,3.083e-07
3130.0,1.322e-07
3135.0,2.852e-07
3140.0,7.006e-08
3145.0,6.847e-08
3150.0,1.461e-07
3155.0,1.334e-07
3160.0,2.434e-07
3165.0,7.721e-07
3170.0,1.098e-06
3175.0,2.09e-07
3180.0,4.09e-07
3185.0,1.623e-07
3190.0,8.897e-08
3195.0,4.72e-08
3200.0,6.662e-09
3205.0,4.352e-09
3210.0,1.813e-09
3215.0,7.371e-09
3220.0,2.588e-08
3225.0,2.976e-09
3230.0,4.942e-09
3235.0,1.386e-07
3240.0,6.297e-08
3245.0,1.196e-08
3250.0,4.409e-08
3255.0,1.899e-07
3260.0,1.887e-08
3265.0,4.084e-08
3270.0,1.923e-08
3275.0,1.162e-07
3280.0,4.93e-08
3285.0,2.595e-07
3290.0,1.62e-07
3295.0,1.985e-08
3300.0,2.936e-08
3305.0,6.743e-08
3310.0,6.402e-08
3315.0,9.28e-11
3320.0,5.848e-10
3325.0,5.377e-08
3330.0,9.115e-08
3335.0,1.748e-07
3340.0,4.379e-07
3345.0,5.658e-08
3350.0,2.124e-07
3355.0,5.759e-08
3360.0,9.148e-08
3365.0,3.144e-07
3370.0,5.998e-08
3375.0,1.085e-06
3380.0,7.906e-08
3385.0,9.739e-07
3390.0,3.066e-07
3395.0,1.112e-06
3400.0,1.397e-05
3405.0,6.587e-08
3410.0,1.506e-06
3415.0,1.199e-07
3420.0,3.441e-05
3425.0,6.462e-07
3430.0,1.763e-07
3435.0,2.651e-05
3440.0,1.467e-07
3445.0,1.209e-05
3450.0,3.588e-06
3455.0,5.395e-07
3460.0,4.283e-05
3465.0,6.406e-07
3470.0,3.944e-05
3475.0,5.464e-06
3480.0,6.125e-06
3485.0,3.249e-05
3490.0,3.35e-06
3495.0,3.309e-05
3500.0,2.982e-05
3505.0,2.74e-05
3510.0,3.007e-05
3515.0,2.858e-05
3520.0,4.692e-05
3525.0,4.655e-05
3530.0,2.359e-05
3535.0,3.286e-06
3540.0,2.445e-06
3545.0,2.499e-06
3550.0,2.097e-05
3555.0,5.029e-06
3560.0,3.242e-05
3565.0,1.658e-05
3570.0,4.535e-06
3575.0,2.343e-06
3580.0,1.658e-05
3585.0,4.48e-06
3590.0,1.176e-05
3595.0,3.035e-05
3600.0,4.212e-05
3605.0,1.834e-05
3610.0,1.355e-05
3615.0,3.241e-05
3620.0,0.0001028
3625.0,2.458e-05
3630.0,3.733e-05
3635.0,4.474e-05
3640.0,0.0001175
3645.0,3.199e-05
3650.0,3.781e-05
3655.0,7.919e-05
3660.0,9.652e-05
3665.0,2.48e-05
3670.0,1.183e-05
3675.0,4.375e-07
3680.0,8.004e-06
3685.0,1.946e-05
3690.0,1.641e-05
3695.0,5.682e-05
3700.0,0.0001227
3705.0,0.0001103
3710.0,2.99e-05
3715.0,4.685e-05
3720.0,8.819e-05
3725.0,0.0001026
3730.0,4.429e-05
3735.0,2.29e-05
3740.0,4.2e-05
3745.0,9.539e-05
3750.0,5.834e-05
3755.0,4.3e-05
3760.0,2.711e-05
3765.0,2.94e-05
3770.0,4.592e-05
3775.0,4.816e-05
3780.0,7.472e-05
3785.0,4.43e-05
3790.0,1.984e-05
3795.0,5.727e-05
3800.0,0.0001006
3805.0,7.388e-05
3810.0,3.391e-05
3815.0,2.764e-05
3820.0,9.851e-05
3825.0,9.847e-05
3830.0,0.0001023
3835.0,2.136e-05
3840.0,5.893e-05
3845.0,4.007e-05
3850.0,4.081e-05
3855.0,3.192e-05
3860.0,1.027e-05
3865.0,1.018e-05
3870.0,2.58e-06
3875.0,7.626e-07
3880.0,4.316e-07
3885.0,7.139e-07
3890.0,9.123e-07
3895.0,3.449e-06
3900.0,1.297e-05
3905.0,1.058e-05
3910.0,1.897e-06
3915.0,1.429e-06
3920.0,1.536e-06
3925.0,1.393e-06
3930.0,2.117e-06
3935.0,4.258e-06
3940.0,5.309e-06
3945.0,7.566e-06
3950.0,1.091e-05
3955.0,1.338e-05
3960.0,1.588e-05
3965.0,1.822e-05
3970.0,1.602e-05
3975.0,1.127e-05
3980.0,9.736e-06
3985.0,1.126e-05
3990.0,9.847e-06
3995.0,7.486e-06
4000.0,5.683e-06
