interpolation:linear
wavelength,value
280.0,1.256e-23
280.5,4.396e-22
281.0,2.402e-21
281.5,8.110000000000001e-20
282.0,6.684e-19
282.5,2.594e-18
283.0,1.161e-17
283.5,2.166e-17
284.0,3.301e-16
284.5,9.378e-16
285.0,3.375e-16
285.5,1.905e-15
286.0,7.91e-15
286.5,3.772e-14
287.0,1.118e-13
287.5,4.479e-13
288.0,1.13e-11
288.5,1.772e-11
289.0,3.61e-11
289.5,9.333e-11
290.0,2.386e-10
290.5,4.612e-10
291.0,9.439e-10
291.5,2.599e-09
292.0,5.087e-09
292.5,6.683e-09
293.0,1.337e-08
293.5,3.019e-08
294.0,4.474e-08
294.5,8.935e-09
295.0,1.491e-08
295.5,2.409e-08
296.0,4.08e-08
296.5,5.044e-08
297.0,6.185e-08
297.5,1.438e-07
298.0,2.011e-07
298.5,1.847e-07
299.0,3.731e-07
299.5,5.323e-07
300.0,5.384e-07
300.5,7.164e-07
301.0,1.132e-06
301.5,1.598e-06
302.0,1.286e-06
302.5,1.273e-06
303.0,2.365e-06
303.5,3.028e-06
304.0,2.851e-06
304.5,4.33e-06
305.0,6.921e-06
305.5,8.327e-06
306.0,8.242e-06
306.5,1.069e-05
307.0,1.76e-05
307.5,2.634e-05
308.0,2.841e-05
308.5,3.585e-05
309.0,3.431e-05
309.5,3.587e-05
310.0,3.55e-05
310.5,5.735e-05
311.0,7.215e-05
311.5,6.988e-05
312.0,7.234e-05
312.5,9.148e-05
313.0,0.0001017
313.5,9.655e-05
314.0,0.0001314
314.5,0.0001401
315.0,0.0001905
315.5,0.0001454
316.0,0.0001483
316.5,0.0002448
317.0,0.0003033
317.5,0.0003032
318.0,0.0002607
318.5,0.000393
319.0,0.0005163
319.5,0.0003579
320.0,0.0004223
320.5,0.0006482
321.0,0.0007007
321.5,0.0006853
322.0,0.0005931
322.5,0.0005215
323.0,0.0005944
323.5,0.001496
324.0,0.001818
324.5,0.001663
325.0,0.0007667
325.5,0.001105
326.0,0.002584
326.5,0.002943
327.0,0.002797
327.5,0.002543
328.0,0.001896
328.5,0.002467
329.0,0.003531
329.5,0.004267
330.0,0.004092
330.5,0.002837
331.0,0.002768
331.5,0.00309
332.0,0.003949
332.5,0.004212
333.0,0.004022
333.5,0.003211
334.0,0.00322
334.5,0.004286
335.0,0.004364
335.5,0.005455
336.0,0.003774
336.5,0.003971
337.0,0.003072
337.5,0.003737
338.0,0.004094
338.5,0.005133
339.0,0.005123
339.5,0.004903
340.0,0.005319
340.5,0.004849
341.0,0.005088
341.5,0.004742
342.0,0.005691
342.5,0.005348
343.0,0.005829
343.5,0.005455
344.0,0.003744
344.5,0.004026
345.0,0.005423
345.5,0.005578
346.0,0.004765
346.5,0.005414
347.0,0.005768
347.5,0.004652
348.0,0.005355
348.5,0.005384
349.0,0.005008
349.5,0.004955
350.0,0.006135
350.5,0.006472
351.0,0.005755
351.5,0.005528
352.0,0.005984
352.5,0.004699
353.0,0.005943
353.5,0.006372
354.0,0.006629
354.5,0.006724
355.0,0.006691
355.5,0.006055
356.0,0.006345
356.5,0.00542
357.0,0.004478
357.5,0.005487
358.0,0.004353
358.5,0.003723
359.0,0.005203
359.5,0.00661
360.0,0.007017
360.5,0.005618
361.0,0.005129
361.5,0.005913
362.0,0.005118
362.5,0.007087
363.0,0.006368
363.5,0.005867
364.0,0.007178
364.5,0.006135
365.0,0.006249
365.5,0.007846
366.0,0.008318
366.5,0.00782
367.0,0.007619
367.5,0.007909
368.0,0.006922
368.5,0.006984
369.0,0.007545
369.5,0.008047
370.0,0.008582
370.5,0.006663
371.0,0.007122
371.5,0.008914
372.0,0.005918
372.5,0.007098
373.0,0.007222
373.5,0.0047
374.0,0.006831
374.5,0.005659
375.0,0.005503
375.5,0.008218
376.0,0.006815
376.5,0.007064
377.0,0.007482
377.5,0.008756
378.0,0.009494
378.5,0.008976
379.0,0.007409
379.5,0.006769
380.0,0.00704
380.5,0.008529
381.0,0.008549
381.5,0.006779
382.0,0.006022
382.5,0.005135
383.0,0.004755
383.5,0.004582
384.0,0.005055
384.5,0.007438
385.0,0.007378
385.5,0.006873
386.0,0.005888
386.5,0.007737
387.0,0.00643
387.5,0.007224
388.0,0.006672
388.5,0.006597
389.0,0.007123
389.5,0.008629
390.0,0.008662
390.5,0.007974
391.0,0.009389
391.5,0.009579
392.0,0.00807
392.5,0.007227
393.0,0.004023
393.5,0.002925
394.0,0.005953
394.5,0.00757
395.0,0.00924
395.5,0.009388
396.0,0.008142
396.5,0.004761
397.0,0.003575
397.5,0.007272
398.0,0.01019
398.5,0.01053
399.0,0.01141
399.5,0.01137
400.0,0.01181
401.0,0.01167
402.0,0.01231
403.0,0.0117
404.0,0.01153
405.0,0.01153
406.0,0.01134
407.0,0.01116
408.0,0.01159
409.0,0.0124
410.0,0.01084
411.0,0.01175
412.0,0.01262
413.0,0.01232
414.0,0.01247
415.0,0.0125
416.0,0.01272
417.0,0.0124
418.0,0.01217
419.0,0.01234
420.0,0.01229
421.0,0.01285
422.0,0.01221
423.0,0.01191
424.0,0.01259
425.0,0.01256
426.0,0.01224
427.0,0.01202
428.0,0.01172
429.0,0.01111
430.0,0.009721
431.0,0.00963
432.0,0.01242
433.0,0.01248
434.0,0.01159
435.0,0.01211
436.0,0.01365
437.0,0.01346
438.0,0.01224
439.0,0.01263
440.0,0.01301
441.0,0.01345
442.0,0.01441
443.0,0.01403
444.0,0.01435
445.0,0.01407
446.0,0.01345
447.0,0.01456
448.0,0.01477
449.0,0.0148
450.0,0.01519
451.0,0.01574
452.0,0.01518
453.0,0.01429
454.0,0.01492
455.0,0.01499
456.0,0.01532
457.0,0.01552
458.0,0.01493
459.0,0.01479
460.0,0.01477
461.0,0.01508
462.0,0.0152
463.0,0.01513
464.0,0.01493
465.0,0.01479
466.0,0.01496
467.0,0.01468
468.0,0.01481
469.0,0.01485
470.0,0.01435
471.0,0.01434
472.0,0.01511
473.0,0.01492
474.0,0.01493
475.0,0.01501
476.0,0.01448
477.0,0.01443
478.0,0.01475
479.0,0.01458
480.0,0.01453
481.0,0.01474
482.0,0.0148
483.0,0.01464
484.0,0.01439
485.0,0.01377
486.0,0.01209
487.0,0.0127
488.0,0.01394
489.0,0.01395
490.0,0.01465
491.0,0.01437
492.0,0.01356
493.0,0.01401
494.0,0.01415
495.0,0.01427
496.0,0.01433
497.0,0.0145
498.0,0.01375
499.0,0.01382
500.0,0.01333
501.0,0.01298
502.0,0.01267
503.0,0.01308
504.0,0.01263
505.0,0.0131
506.0,0.01353
507.0,0.0129
508.0,0.01255
509.0,0.01296
510.0,0.01294
511.0,0.01332
512.0,0.01348
513.0,0.01274
514.0,0.01264
515.0,0.01248
516.0,0.01243
517.0,0.01103
518.0,0.01158
519.0,0.01213
520.0,0.01255
521.0,0.01263
522.0,0.01258
523.0,0.01232
524.0,0.01268
525.0,0.01273
526.0,0.0121
527.0,0.01131
528.0,0.01188
529.0,0.01245
530.0,0.01221
531.0,0.01234
532.0,0.01188
533.0,0.01152
534.0,0.01187
535.0,0.01216
536.0,0.01231
537.0,0.01185
538.0,0.01206
539.0,0.01194
540.0,0.01141
541.0,0.01138
542.0,0.01171
543.0,0.0116
544.0,0.01173
545.0,0.01168
546.0,0.01168
547.0,0.0117
548.0,0.01159
549.0,0.01163
550.0,0.01177
551.0,0.01163
552.0,0.01171
553.0,0.01148
554.0,0.01174
555.0,0.01174
556.0,0.01156
557.0,0.01115
558.0,0.01101
559.0,0.01074
560.0,0.0108
561.0,0.01087
562.0,0.01072
563.0,0.01093
564.0,0.01057
565.0,0.01042
566.0,0.01022
567.0,0.01033
568.0,0.01008
569.0,0.009732
570.0,0.009675
571.0,0.009589
572.0,0.009706
573.0,0.009765
574.0,0.009673
575.0,0.009444
576.0,0.009343
577.0,0.009463
578.0,0.009395
579.0,0.009559
580.0,0.009933
581.0,0.01016
582.0,0.01049
583.0,0.01063
584.0,0.0108
585.0,0.0106
586.0,0.01041
587.0,0.01057
588.0,0.01021
589.0,0.008431
590.0,0.008757
591.0,0.009598
592.0,0.009252
593.0,0.009678
594.0,0.009459
595.0,0.009136
596.0,0.00997
597.0,0.009563
598.0,0.009639
599.0,0.0098
600.0,0.009808
601.0,0.009788
602.0,0.009763
603.0,0.01001
604.0,0.01025
605.0,0.01027
606.0,0.01028
607.0,0.01045
608.0,0.01042
609.0,0.01052
610.0,0.01053
611.0,0.01067
612.0,0.01071
613.0,0.01066
614.0,0.01058
615.0,0.01088
616.0,0.01058
617.0,0.01061
618.0,0.01107
619.0,0.01099
620.0,0.01108
621.0,0.01111
622.0,0.01099
623.0,0.01082
624.0,0.01061
625.0,0.01055
626.0,0.01066
627.0,0.01061
628.0,0.008193
629.0,0.009577
630.0,0.009312
631.0,0.01012
632.0,0.01024
633.0,0.01081
634.0,0.01099
635.0,0.01135
636.0,0.01134
637.0,0.0117
638.0,0.01201
639.0,0.012
640.0,0.01207
641.0,0.01218
642.0,0.01229
643.0,0.01254
644.0,0.01262
645.0,0.01251
646.0,0.01213
647.0,0.01117
648.0,0.01121
649.0,0.01087
650.0,0.01185
651.0,0.01259
652.0,0.01123
653.0,0.01262
654.0,0.01274
655.0,0.01149
656.0,0.01048
657.0,0.01108
658.0,0.01258
659.0,0.01311
660.0,0.01318
661.0,0.01353
662.0,0.0138
663.0,0.01363
664.0,0.01382
665.0,0.01388
666.0,0.014
667.0,0.01408
668.0,0.01424
669.0,0.01452
670.0,0.01454
671.0,0.01462
672.0,0.01457
673.0,0.01487
674.0,0.01489
675.0,0.01483
676.0,0.015
677.0,0.01492
678.0,0.01503
679.0,0.01486
680.0,0.01502
681.0,0.01492
682.0,0.01492
683.0,0.01489
684.0,0.01477
685.0,0.01504
686.0,0.01478
687.0,0.004732
688.0,0.005696
689.0,0.005727
690.0,0.006244
691.0,0.007212
692.0,0.008568
693.0,0.008793
694.0,0.009343
695.0,0.01111
696.0,0.01125
697.0,0.01466
698.0,0.01361
699.0,0.01174
700.0,0.01163
701.0,0.01086
702.0,0.0112
703.0,0.01193
704.0,0.01302
705.0,0.01307
706.0,0.01342
707.0,0.01347
708.0,0.01415
709.0,0.01471
710.0,0.0138
711.0,0.01419
712.0,0.0148
713.0,0.01386
714.0,0.01436
715.0,0.01328
716.0,0.01265
717.0,0.00718
718.0,0.007057
719.0,0.006869
720.0,0.006429
721.0,0.008564
722.0,0.01055
723.0,0.009707
724.0,0.00826
725.0,0.007614
726.0,0.007114
727.0,0.009285
728.0,0.006757
729.0,0.008093
730.0,0.007833
731.0,0.007464
732.0,0.00918
733.0,0.01097
734.0,0.01207
735.0,0.01163
736.0,0.01083
737.0,0.01135
738.0,0.01351
739.0,0.01325
740.0,0.01431
741.0,0.01448
742.0,0.01502
743.0,0.01537
744.0,0.01545
745.0,0.01581
746.0,0.0159
747.0,0.01604
748.0,0.01606
749.0,0.01592
750.0,0.01593
751.0,0.01578
752.0,0.0159
753.0,0.01603
754.0,0.01604
755.0,0.01591
756.0,0.01598
757.0,0.01598
758.0,0.0157
759.0,0.01327
760.0,0.0009142
761.0,0.000488
762.0,0.002683
763.0,0.001366
764.0,0.002021
765.0,0.002658
766.0,0.00325
767.0,0.004445
768.0,0.007747
769.0,0.009545
770.0,0.01274
771.0,0.0146
772.0,0.01527
773.0,0.01556
774.0,0.01564
775.0,0.01564
776.0,0.01591
777.0,0.01574
778.0,0.01562
779.0,0.01566
780.0,0.01561
781.0,0.01565
782.0,0.01579
783.0,0.01556
784.0,0.0157
785.0,0.01552
786.0,0.01546
787.0,0.01398
788.0,0.01379
789.0,0.01326
790.0,0.01162
791.0,0.01278
792.0,0.013
793.0,0.01266
794.0,0.01471
795.0,0.01437
796.0,0.0118
797.0,0.01275
798.0,0.0146
799.0,0.01385
800.0,0.0125
801.0,0.01198
802.0,0.01242
803.0,0.01153
804.0,0.01221
805.0,0.01283
806.0,0.01452
807.0,0.01376
808.0,0.0138
809.0,0.01241
810.0,0.01224
811.0,0.01016
812.0,0.00945
813.0,0.008842
814.0,0.006229
815.0,0.0061
816.0,0.006988
817.0,0.006963
818.0,0.00689
819.0,0.007232
820.0,0.008444
821.0,0.009947
822.0,0.008714
823.0,0.003406
824.0,0.007937
825.0,0.01156
826.0,0.008265
827.0,0.01019
828.0,0.006231
829.0,0.009623
830.0,0.009294
831.0,0.009042
832.0,0.008652
833.0,0.009001
834.0,0.008367
835.0,0.01146
836.0,0.009706
837.0,0.01131
838.0,0.01004
839.0,0.01213
840.0,0.01288
841.0,0.01209
842.0,0.01265
843.0,0.01376
844.0,0.01301
845.0,0.01402
846.0,0.01441
847.0,0.01437
848.0,0.01387
849.0,0.01345
850.0,0.01285
851.0,0.01297
852.0,0.01338
853.0,0.01321
854.0,0.01127
855.0,0.01257
856.0,0.01372
857.0,0.01429
858.0,0.0141
859.0,0.01445
860.0,0.0146
861.0,0.0145
862.0,0.01478
863.0,0.01511
864.0,0.01442
865.0,0.01435
866.0,0.0129
867.0,0.01348
868.0,0.01469
869.0,0.01442
870.0,0.01486
871.0,0.01463
872.0,0.01464
873.0,0.01462
874.0,0.01446
875.0,0.01411
876.0,0.01427
877.0,0.0144
878.0,0.01454
879.0,0.01433
880.0,0.01396
881.0,0.01359
882.0,0.01365
883.0,0.01395
884.0,0.01378
885.0,0.01367
886.0,0.01217
887.0,0.01319
888.0,0.01289
889.0,0.01393
890.0,0.01274
891.0,0.01357
892.0,0.01126
893.0,0.01048
894.0,0.008189
895.0,0.006264
896.0,0.006053
897.0,0.005175
898.0,0.005552
899.0,0.00306
900.0,0.005009
901.0,0.003249
902.0,0.003331
903.0,0.004223
904.0,0.007729
905.0,0.006757
906.0,0.006312
907.0,0.003914
908.0,0.004699
909.0,0.004404
910.0,0.002752
911.0,0.0038
912.0,0.006038
913.0,0.002902
914.0,0.004529
915.0,0.002706
916.0,0.003434
917.0,0.00372
918.0,0.003024
919.0,0.004219
920.0,0.005995
921.0,0.005569
922.0,0.004107
923.0,0.005615
924.0,0.003726
925.0,0.003552
926.0,0.003514
927.0,0.004237
928.0,0.001705
929.0,0.001361
930.0,0.0009568
931.0,0.0008933
932.0,0.0006321
933.0,0.0005086
934.0,0.0002758
935.0,0.0005169
936.0,0.0003202
937.0,0.000323
938.0,0.0003959
939.0,0.0008404
940.0,0.001038
941.0,0.0007482
942.0,0.0008677
943.0,0.000561
944.0,0.000593
945.0,0.0007603
946.0,0.0003795
947.0,0.0007555
948.0,0.0005555
949.0,0.001021
950.0,0.0002749
951.0,0.001009
952.0,0.0005539
953.0,0.0006972
954.0,0.0008515
955.0,0.0008408
956.0,0.000728
957.0,0.0005528
958.0,0.001126
959.0,0.000813
960.0,0.0009721
961.0,0.001192
962.0,0.001098
963.0,0.001608
964.0,0.001381
965.0,0.001398
966.0,0.00178
967.0,0.002005
968.0,0.006044
969.0,0.003628
970.0,0.004841
971.0,0.005246
972.0,0.00557
973.0,0.002915
974.0,0.002684
975.0,0.003719
976.0,0.003318
977.0,0.005541
978.0,0.003532
979.0,0.004458
980.0,0.004399
981.0,0.005761
982.0,0.004884
983.0,0.004453
984.0,0.007682
985.0,0.004588
986.0,0.0101
987.0,0.00743
988.0,0.008109
989.0,0.01079
990.0,0.007273
991.0,0.0107
992.0,0.01102
993.0,0.008735
994.0,0.01126
995.0,0.0116
996.0,0.01124
997.0,0.01131
998.0,0.01113
999.0,0.01122
1000.0,0.01097
1001.0,0.01139
1002.0,0.009113
1003.0,0.0112
1004.0,0.01015
1005.0,0.01041
1006.0,0.01081
1007.0,0.01099
1008.0,0.01067
1009.0,0.01022
1010.0,0.01016
1011.0,0.01083
1012.0,0.01064
1013.0,0.01107
1014.0,0.011
1015.0,0.01095
1016.0,0.01078
1017.0,0.01066
1018.0,0.01092
1019.0,0.009804
1020.0,0.01081
1021.0,0.0109
1022.0,0.01056
1023.0,0.01068
1024.0,0.009725
1025.0,0.01085
1026.0,0.01047
1027.0,0.01076
1028.0,0.01055
1029.0,0.01025
1030.0,0.01058
1031.0,0.01059
1032.0,0.01048
1033.0,0.01042
1034.0,0.01038
1035.0,0.01043
1036.0,0.01031
1037.0,0.01023
1038.0,0.01022
1039.0,0.01014
1040.0,0.01008
1041.0,0.01001
1042.0,0.009936
1043.0,0.009847
1044.0,0.009811
1045.0,0.009614
1046.0,0.00944
1047.0,0.009444
1048.0,0.009408
1049.0,0.00929
1050.0,0.009151
1051.0,0.009027
1052.0,0.008886
1053.0,0.008686
1054.0,0.00857
1055.0,0.008417
1056.0,0.008211
1057.0,0.008064
1058.0,0.007737
1059.0,0.007582
1060.0,0.007509
1061.0,0.007411
1062.0,0.007384
1063.0,0.007124
1064.0,0.007259
1065.0,0.006875
1066.0,0.006982
1067.0,0.007049
1068.0,0.006694
1069.0,0.006692
1070.0,0.007006
1071.0,0.007468
1072.0,0.007073
1073.0,0.007054
1074.0,0.007839
1075.0,0.005979
1076.0,0.007919
1077.0,0.00692
1078.0,0.00617
1079.0,0.008166
1080.0,0.006696
1081.0,0.005682
1082.0,0.00728
1083.0,0.007556
1084.0,0.005737
1085.0,0.006971
1086.0,0.005228
1087.0,0.005652
1088.0,0.007425
1089.0,0.005565
1090.0,0.005256
1091.0,0.00671
1092.0,0.007036
1093.0,0.003645
1094.0,0.005905
1095.0,0.00338
1096.0,0.002866
1097.0,0.007103
1098.0,0.002855
1099.0,0.002703
1100.0,0.002015
1101.0,0.00235
1102.0,0.001912
1103.0,0.001465
1104.0,0.00182
1105.0,0.002093
1106.0,0.0007449
1107.0,0.001978
1108.0,0.0008743
1109.0,0.0009935
1110.0,0.001254
1111.0,0.0004738
1112.0,0.00117
1113.0,0.000347
1114.0,0.0003816
1115.0,0.000302
1116.0,0.0002211
1117.0,7.942e-05
1118.0,0.0002398
1119.0,0.0001171
1120.0,0.0001468
1121.0,0.0001949
1122.0,8.072e-05
1123.0,0.0001313
1124.0,0.0001105
1125.0,0.0001439
1126.0,4.893e-05
1127.0,0.0001614
1128.0,9.513e-05
1129.0,0.0001008
1130.0,6.565e-05
1131.0,0.0003048
1132.0,0.0002378
1133.0,0.0001487
1134.0,3.706e-05
1135.0,1.389e-05
1136.0,0.0001223
1137.0,0.000293
1138.0,0.0002054
1139.0,0.0003136
1140.0,0.0002569
1141.0,0.0001935
1142.0,0.0002226
1143.0,0.0003171
1144.0,0.0001087
1145.0,0.0001379
1146.0,0.0001482
1147.0,5.097e-05
1148.0,0.0002702
1149.0,0.0002132
1150.0,0.0001149
1151.0,0.0001955
1152.0,0.0002417
1153.0,0.0002386
1154.0,0.00013
1155.0,0.0003181
1156.0,0.0002895
1157.0,0.0003739
1158.0,0.0003514
1159.0,0.0004055
1160.0,0.0003814
1161.0,0.00083
1162.0,0.001121
1163.0,0.001766
1164.0,0.001647
1165.0,0.0008317
1166.0,0.001619
1167.0,0.001655
1168.0,0.001546
1169.0,0.001846
1170.0,0.002628
1171.0,0.002124
1172.0,0.003689
1173.0,0.002252
1174.0,0.0009565
1175.0,0.002952
1176.0,0.005308
1177.0,0.003478
1178.0,0.001715
1179.0,0.004922
1180.0,0.004015
1181.0,0.002606
1182.0,0.0008856
1183.0,0.002812
1184.0,0.003434
1185.0,0.00246
1186.0,0.003572
1187.0,0.00248
1188.0,0.0009365
1189.0,0.002685
1190.0,0.003947
1191.0,0.002433
1192.0,0.004151
1193.0,0.004541
1194.0,0.003909
1195.0,0.002655
1196.0,0.002094
1197.0,0.003912
1198.0,0.003759
1199.0,0.001538
1200.0,0.003181
1201.0,0.002311
1202.0,0.003485
1203.0,0.002358
1204.0,0.003499
1205.0,0.004613
1206.0,0.005463
1207.0,0.002976
1208.0,0.003433
1209.0,0.003695
1210.0,0.004918
1211.0,0.003999
1212.0,0.002221
1213.0,0.004424
1214.0,0.002677
1215.0,0.002362
1216.0,0.004981
1217.0,0.004393
1218.0,0.004887
1219.0,0.004571
1220.0,0.004869
1221.0,0.005395
1222.0,0.00496
1223.0,0.004724
1224.0,0.004193
1225.0,0.00479
1226.0,0.005627
1227.0,0.003614
1228.0,0.006397
1229.0,0.005478
1230.0,0.00516
1231.0,0.006767
1232.0,0.00673
1233.0,0.004276
1234.0,0.007271
1235.0,0.006749
1236.0,0.007183
1237.0,0.006114
1238.0,0.007163
1239.0,0.007095
1240.0,0.007242
1241.0,0.006713
1242.0,0.007077
1243.0,0.007095
1244.0,0.006865
1245.0,0.007067
1246.0,0.007067
1247.0,0.006781
1248.0,0.006528
1249.0,0.006777
1250.0,0.006492
1251.0,0.005957
1252.0,0.006571
1253.0,0.005474
1254.0,0.004903
1255.0,0.006344
1256.0,0.004439
1257.0,0.004108
1258.0,0.005385
1259.0,0.003148
1260.0,0.003383
1261.0,0.001721
1262.0,0.001208
1263.0,0.001211
1264.0,0.0005777
1265.0,0.001194
1266.0,0.0007768
1267.0,0.001038
1268.0,0.0006446
1269.0,0.000164
1270.0,0.0009144
1271.0,0.001885
1272.0,0.001947
1273.0,0.001796
1274.0,0.002053
1275.0,0.002243
1276.0,0.002637
1277.0,0.003151
1278.0,0.003946
1279.0,0.003991
1280.0,0.004187
1281.0,0.004549
1282.0,0.004994
1283.0,0.005191
1284.0,0.005495
1285.0,0.005566
1286.0,0.005956
1287.0,0.005599
1288.0,0.005629
1289.0,0.003618
1290.0,0.00564
1291.0,0.006051
1292.0,0.003008
1293.0,0.005417
1294.0,0.005032
1295.0,0.003632
1296.0,0.002788
1297.0,0.002347
1298.0,0.003525
1299.0,0.005062
1300.0,0.001873
1301.0,0.001756
1302.0,0.003469
1303.0,0.002873
1304.0,0.0008217
1305.0,0.003027
1306.0,0.002373
1307.0,0.001276
1308.0,0.002122
1309.0,0.002097
1310.0,0.001383
1311.0,0.002434
1312.0,0.001689
1313.0,0.001235
1314.0,0.000542
1315.0,0.0005304
1316.0,0.001898
1317.0,0.002312
1318.0,0.002492
1319.0,0.0008183
1320.0,0.0005338
1321.0,0.001041
1322.0,0.0005523
1323.0,0.0002265
1324.0,0.0007866
1325.0,0.000953
1326.0,0.0006881
1327.0,0.0005092
1328.0,0.0002137
1329.0,0.0001104
1330.0,0.000154
1331.0,8.477e-05
1332.0,8.376e-05
1333.0,0.0001191
1334.0,0.0001251
1335.0,0.0001546
1336.0,0.0001133
1337.0,0.0001034
1338.0,0.0001051
1339.0,0.0001056
1340.0,0.0001032
1341.0,9.491e-05
1342.0,0.0001
1343.0,6.639e-05
1344.0,3.966e-05
1345.0,5.701e-05
1346.0,2.812e-05
1347.0,2.849e-05
1348.0,1.837e-06
1349.0,6.59e-06
1350.0,6.832e-06
1351.0,1.652e-06
1352.0,4.443e-07
1353.0,2.261e-08
1354.0,7.773e-08
1355.0,6.259e-10
1356.0,1.095e-08
1357.0,1.664e-08
1358.0,7.35e-10
1359.0,9.26e-11
1360.0,3.347e-10
1361.0,3.744e-13
1362.0,1.024e-15
1363.0,4.501e-10
1364.0,1.858e-10
1365.0,3.577e-16
1366.0,1.951e-09
1367.0,7.965e-10
1368.0,2.763e-18
1369.0,6.851e-11
1370.0,3.374e-11
1371.0,1.913e-12
1372.0,4.321e-10
1373.0,8.707e-09
1374.0,4.038e-08
1375.0,7.325e-08
1376.0,6.57e-08
1377.0,3.001e-08
1378.0,2.934e-07
1379.0,1.254e-08
1380.0,1.802e-08
1381.0,4.695e-10
1382.0,3.79e-10
1383.0,5.666e-12
1384.0,7.43e-11
1385.0,3.553e-10
1386.0,3.343e-10
1387.0,4.043e-08
1388.0,7.953e-10
1389.0,1.365e-07
1390.0,1.172e-07
1391.0,7.794e-08
1392.0,5.052e-09
1393.0,2.677e-08
1394.0,1.38e-08
1395.0,1.011e-10
1396.0,4.887e-13
1397.0,1.054e-08
1398.0,3.117e-07
1399.0,1.972e-07
1400.0,2.09e-13
1401.0,8.672e-13
1402.0,5.463e-07
1403.0,6.843e-07
1404.0,2.079e-07
1405.0,4.791e-11
1406.0,5.375e-07
1407.0,4.737e-08
1408.0,4.373e-07
1409.0,1.458e-07
1410.0,1.167e-07
1411.0,5.887e-07
1412.0,7.943e-07
1413.0,8.267e-06
1414.0,9.116e-08
1415.0,4.353e-08
1416.0,1.367e-05
1417.0,4.035e-06
1418.0,4.57e-06
1419.0,7.033e-07
1420.0,2.777e-06
1421.0,2.996e-06
1422.0,1.757e-05
1423.0,3.37e-06
1424.0,6.326e-06
1425.0,9.242e-06
1426.0,1.058e-05
1427.0,1.967e-05
1428.0,1.377e-06
1429.0,1.449e-05
1430.0,2.5e-05
1431.0,2.749e-05
1432.0,1.07e-06
1433.0,1.725e-05
1434.0,8.678e-06
1435.0,8.409e-06
1436.0,1.656e-05
1437.0,1.266e-05
1438.0,5.228e-06
1439.0,2.251e-05
1440.0,1.681e-05
1441.0,1.257e-05
1442.0,1.393e-05
1443.0,1.777e-05
1444.0,2.474e-05
1445.0,1.901e-05
1446.0,8.43e-06
1447.0,1.329e-05
1448.0,4.708e-05
1449.0,4.045e-05
1450.0,9.793e-06
1451.0,3.856e-06
1452.0,2.381e-05
1453.0,3.138e-05
1454.0,5.528e-05
1455.0,2.542e-05
1456.0,3.388e-05
1457.0,4.619e-05
1458.0,5.592e-05
1459.0,6.541e-05
1460.0,3.345e-05
1461.0,3.424e-05
1462.0,5.091e-05
1463.0,1.598e-05
1464.0,6.089e-05
1465.0,3.646e-05
1466.0,2.405e-05
1467.0,1.231e-05
1468.0,2.847e-05
1469.0,3.532e-05
1470.0,1.697e-05
1471.0,6.017e-06
1472.0,1.613e-05
1473.0,2.508e-05
1474.0,3.746e-05
1475.0,7.232e-05
1476.0,2.497e-05
1477.0,2.491e-05
1478.0,2.33e-05
1479.0,4.554e-05
1480.0,2.134e-05
1481.0,4.295e-05
1482.0,2.088e-05
1483.0,5.627e-05
1484.0,5.616e-05
1485.0,4.68e-05
1486.0,4.528e-05
1487.0,2.017e-05
1488.0,3.726e-05
1489.0,7.763e-05
1490.0,0.0001142
1491.0,0.0001429
1492.0,6.903e-05
1493.0,0.0001092
1494.0,0.0002495
1495.0,0.0001531
1496.0,0.0001135
1497.0,0.0006216
1498.0,0.0003803
1499.0,0.0003215
1500.0,0.001258
1501.0,0.001083
1502.0,0.001115
1503.0,0.0004263
1504.0,7.772e-05
1505.0,0.0003445
1506.0,0.001601
1507.0,0.001431
1508.0,0.001586
1509.0,0.000587
1510.0,0.001977
1511.0,0.001275
1512.0,0.002106
1513.0,0.0008377
1514.0,0.000757
1515.0,0.002405
1516.0,0.002109
1517.0,0.001275
1518.0,0.001774
1519.0,0.001144
1520.0,0.001739
1521.0,0.003882
1522.0,0.002355
1523.0,0.00403
1524.0,0.002885
1525.0,0.001873
1526.0,0.002099
1527.0,0.002494
1528.0,0.003588
1529.0,0.002978
1530.0,0.002371
1531.0,0.002764
1532.0,0.004155
1533.0,0.004453
1534.0,0.004611
1535.0,0.004051
1536.0,0.004198
1537.0,0.004632
1538.0,0.004466
1539.0,0.004295
1540.0,0.004462
1541.0,0.004348
1542.0,0.004163
1543.0,0.004504
1544.0,0.004356
1545.0,0.004632
1546.0,0.004092
1547.0,0.004369
1548.0,0.004394
1549.0,0.004665
1550.0,0.004513
1551.0,0.004353
1552.0,0.004421
1553.0,0.004519
1554.0,0.004329
1555.0,0.004513
1556.0,0.004404
1557.0,0.004523
1558.0,0.004524
1559.0,0.004476
1560.0,0.004412
1561.0,0.004473
1562.0,0.004323
1563.0,0.004239
1564.0,0.0042
1565.0,0.004523
1566.0,0.004274
1567.0,0.004332
1568.0,0.004223
1569.0,0.004463
1570.0,0.004431
1571.0,0.004419
1572.0,0.004407
1573.0,0.00426
1574.0,0.003991
1575.0,0.003891
1576.0,0.003506
1577.0,0.003372
1578.0,0.003391
1579.0,0.003147
1580.0,0.003288
1581.0,0.003257
1582.0,0.003271
1583.0,0.003188
1584.0,0.00378
1585.0,0.00394
1586.0,0.003864
1587.0,0.003726
1588.0,0.004089
1589.0,0.004015
1590.0,0.003926
1591.0,0.004131
1592.0,0.004028
1593.0,0.004273
1594.0,0.004183
1595.0,0.004204
1596.0,0.003984
1597.0,0.00381
1598.0,0.004243
1599.0,0.00425
1600.0,0.004333
1601.0,0.004105
1602.0,0.003977
1603.0,0.00431
1604.0,0.004244
1605.0,0.004295
1606.0,0.004223
1607.0,0.004278
1608.0,0.003938
1609.0,0.004095
1610.0,0.003973
1611.0,0.004045
1612.0,0.004197
1613.0,0.003996
1614.0,0.00413
1615.0,0.004059
1616.0,0.003999
1617.0,0.003831
1618.0,0.004145
1619.0,0.003784
1620.0,0.004018
1621.0,0.003969
1622.0,0.004009
1623.0,0.004106
1624.0,0.003899
1625.0,0.003831
1626.0,0.003841
1627.0,0.003961
1628.0,0.003795
1629.0,0.00391
1630.0,0.003802
1631.0,0.003456
1632.0,0.003681
1633.0,0.002861
1634.0,0.003716
1635.0,0.002823
1636.0,0.003333
1637.0,0.003542
1638.0,0.002122
1639.0,0.003444
1640.0,0.001973
1641.0,0.003201
1642.0,0.003606
1643.0,0.001564
1644.0,0.003794
1645.0,0.002366
1646.0,0.001509
1647.0,0.003753
1648.0,0.001537
1649.0,0.003139
1650.0,0.003314
1651.0,0.001222
1652.0,0.002975
1653.0,0.003524
1654.0,0.001639
1655.0,0.003301
1656.0,0.002499
1657.0,0.002849
1658.0,0.003591
1659.0,0.003316
1660.0,0.003307
1661.0,0.003431
1662.0,0.002638
1663.0,0.003521
1664.0,0.003405
1665.0,0.001585
1666.0,0.0001441
1667.0,0.001621
1668.0,0.002998
1669.0,0.003151
1670.0,0.003487
1671.0,0.00303
1672.0,0.003341
1673.0,0.003463
1674.0,0.002683
1675.0,0.002881
1676.0,0.003304
1677.0,0.002779
1678.0,0.002166
1679.0,0.003399
1680.0,0.002925
1681.0,0.002171
1682.0,0.003323
1683.0,0.003441
1684.0,0.001192
1685.0,0.00338
1686.0,0.003367
1687.0,0.002193
1688.0,0.003079
1689.0,0.00318
1690.0,0.002862
1691.0,0.001322
1692.0,0.002572
1693.0,0.003375
1694.0,0.002286
1695.0,0.00305
1696.0,0.00331
1697.0,0.0008268
1698.0,0.002868
1699.0,0.002976
1700.0,0.0024
1702.0,0.002847
1705.0,0.002198
1710.0,0.001931
1715.0,0.002241
1720.0,0.002363
1725.0,0.001262
1730.0,0.001976
1735.0,0.001477
1740.0,0.001623
1745.0,0.00189
1750.0,0.0009431
1755.0,0.001248
1760.0,0.0007872
1765.0,0.0006457
1770.0,0.0004566
1775.0,0.0003441
1780.0,0.0001809
1785.0,6.448e-05
1790.0,3.584e-05
1795.0,7.649e-06
1800.0,5.262e-06
1805.0,2.089e-06
1810.0,1.357e-06
1815.0,3.925e-07
1820.0,9.819e-08
1825.0,1.281e-07
1830.0,3.124e-10
1835.0,4.73e-10
1840.0,2.76e-12
1845.0,2.951e-10
1850.0,1.332e-10
1855.0,1.274e-11
1860.0,7.298e-10
1865.0,1.017e-09
1870.0,5.567e-15
1875.0,1.006e-14
1880.0,5.357e-09
1885.0,2.855e-09
1890.0,1.566e-08
1895.0,9.087e-09
1900.0,3.884e-11
1905.0,2.646e-11
1910.0,1.282e-09
1915.0,1.249e-09
1920.0,3.275e-08
1925.0,7.694e-08
1930.0,4.444e-08
1935.0,3.387e-07
1940.0,3.364e-07
1945.0,1.386e-06
1950.0,2.697e-06
1955.0,2.403e-06
1960.0,4.238e-06
1965.0,7.321e-05
1970.0,0.0001456
1975.0,0.0001811
1980.0,6.618e-05
1985.0,0.0001226
1990.0,0.000418
1995.0,0.0003419
2000.0,0.0005914
2005.0,0.0002714
2010.0,0.001214
2015.0,0.0002632
2020.0,0.0005149
2025.0,0.0009334
2030.0,0.0005965
2035.0,0.001202
2040.0,0.000871
2045.0,0.0009635
2050.0,0.001416
2055.0,0.0009497
2060.0,0.0008226
2065.0,0.001115
2070.0,0.0009518
2075.0,0.001336
2080.0,0.001367
2085.0,0.001351
2090.0,0.001423
2095.0,0.00127
2100.0,0.0008924
2105.0,0.001279
2110.0,0.0009627
2115.0,0.001302
2120.0,0.0008823
2125.0,0.001122
2130.0,0.001333
2135.0,0.001417
2140.0,0.001455
2145.0,0.001435
2150.0,0.0008576
2155.0,0.0008307
2160.0,0.0009158
2165.0,0.0007657
2170.0,0.001009
2175.0,0.0007404
2180.0,0.0009482
2185.0,0.0005962
2190.0,0.0008827
2195.0,0.0008048
2200.0,0.0001852
2205.0,0.0005124
2210.0,0.001102
2215.0,0.0007451
2220.0,0.0008452
2225.0,0.0007042
2230.0,0.0007186
2235.0,0.0005998
2240.0,0.0005766
2245.0,0.0003596
2250.0,0.000563
2255.0,0.0002383
2260.0,0.0002108
2265.0,0.0003468
2270.0,0.0001502
2275.0,0.0001324
2280.0,0.0003287
2285.0,0.0001357
2290.0,0.0001467
2295.0,0.000132
2300.0,6.408e-05
2305.0,7.824e-05
2310.0,0.0003597
2315.0,8.286e-05
2320.0,2.763e-05
2325.0,0.0001969
2330.0,0.0001087
2335.0,0.0001506
2340.0,2.16e-05
2345.0,2.975e-05
2350.0,1.71e-05
2355.0,2.247e-05
2360.0,3.245e-05
2365.0,0.0001025
2370.0,2.008e-06
2375.0,1.955e-05
2380.0,5.334e-05
2385.0,6.118e-06
2390.0,7.701e-06
2395.0,1.072e-05
2400.0,1.28e-05
2405.0,2.057e-05
2410.0,1.735e-05
2415.0,2.403e-06
2420.0,1.868e-06
2425.0,2.637e-06
2430.0,6.428e-06
2435.0,7.562e-07
2440.0,7.062e-06
2445.0,1.098e-06
2450.0,6.588e-07
2455.0,3.266e-06
2460.0,1.786e-06
2465.0,1.173e-06
2470.0,7.681e-07
2475.0,7.451e-07
2480.0,3.504e-07
2485.0,2.265e-07
2490.0,1.303e-07
2495.0,1.127e-07
2500.0,2.796e-07
2505.0,5.685e-08
2510.0,8.366e-08
2515.0,1.809e-08
2520.0,9.954e-09
2525.0,1.135e-09
2530.0,7.902e-12
2535.0,1.748e-12
2540.0,4.146e-12
2545.0,3.216e-16
2550.0,1.304e-18
2555.0,6.257e-15
2560.0,1.878e-16
2565.0,4.204e-20
2570.0,1.252e-24
2575.0,7.92e-35
2580.0,8.258e-29
2585.0,1.7260000000000002e-42
2590.0,1.0769999999999999e-38
2595.0,2.095e-40
2600.0,1.725e-35
2605.0,1.9070000000000003e-42
2610.0,6.562e-42
2615.0,0.0
2620.0,5.7830000000000005e-36
2625.0,1.059e-35
2630.0,0.0
2635.0,5.514999999999999e-22
2640.0,1.1939999999999999e-22
2645.0,5.204e-25
2650.0,5.184000000000001e-26
2655.0,6.234e-35
2660.0,5.249000000000001e-32
2665.0,5.605e-45
2670.0,0.0
2675.0,2.522e-44
2680.0,1.0640000000000001e-30
2685.0,1.017e-31
2690.0,3.8040000000000003e-31
2695.0,1.4919999999999999e-33
2700.0,4.3469999999999997e-29
2705.0,1.233e-26
2710.0,9.817e-32
2715.0,1.24e-29
2720.0,0.0
2725.0,2.776e-27
2730.0,8.092e-25
2735.0,9.228e-27
2740.0,1.667e-32
2745.0,2.149e-27
2750.0,1.205e-26
2755.0,1.938e-28
2760.0,2.904e-23
2765.0,1.363e-29
2770.0,6.698e-27
2775.0,8.364e-24
2780.0,3.85e-21
2785.0,1.445e-20
2790.0,3.296e-18
2795.0,7.776e-19
2800.0,2.315e-15
2805.0,4.328e-17
2810.0,1.735e-13
2815.0,5.176e-14
2820.0,6.325e-16
2825.0,3.44e-10
2830.0,1.206e-10
2835.0,1.662e-15
2840.0,3.559e-12
2845.0,1.231e-09
2850.0,2.13e-11
2855.0,8.509e-12
2860.0,4.478e-10
2865.0,3.261e-09
2870.0,8.44e-11
2875.0,7.938e-09
2880.0,5.003e-09
2885.0,8.241e-09
2890.0,3.507e-09
2895.0,5.971e-08
2900.0,1.664e-08
2905.0,1.927e-09
2910.0,6.091e-08
2915.0,2.585e-08
2920.0,6.415e-08
2925.0,2.287e-08
2930.0,1.384e-07
2935.0,1.526e-07
2940.0,3.417e-08
2945.0,2.934e-08
2950.0,1.184e-07
2955.0,5.274e-08
2960.0,1.047e-07
2965.0,1.773e-07
2970.0,6.941e-09
2975.0,1.759e-08
2980.0,2.738e-08
2985.0,1.617e-07
2990.0,2.658e-07
2995.0,9.392e-08
3000.0,1.783e-07
3005.0,5.991e-08
3010.0,1.574e-07
3015.0,1.202e-07
3020.0,1.079e-08
3025.0,1.647e-07
3030.0,1.303e-07
3035.0,4.929e-08
3040.0,3.852e-08
3045.0,8.276e-08
3050.0,1.875e-08
3055.0,4.591e-09
3060.0,1.288e-07
3065.0,5.452e-08
3070.0,3.064e-08
3075.0,1.201e-07
3080.0,6.973e-08
3085.0,3.079e-08
3090.0,4.188e-08
3095.0,1.03e-08
3100.0,8.369e-08
3105.0,1.568e-08
3110.0,1.313e-08
3115.0,3.939e-08
3120.0,1.933e-07
3125.0,4.558e-07
3130.0,1.128e-07
3135.0,2.315e-07
3140.0,6.016e-08
3145.0,5.886e-08
3150.0,1.244e-07
3155.0,1.09e-07
3160.0,1.847e-07
3165.0,4.149e-07
3170.0,5.404e-07
3175.0,1.722e-07
3180.0,2.563e-07
3185.0,1.397e-07
3190.0,7.511e-08
3195.0,4.064e-08
3200.0,5.735e-09
3205.0,3.747e-09
3210.0,1.561e-09
3215.0,6.346e-09
3220.0,2.228e-08
3225.0,2.562e-09
3230.0,4.255e-09
3235.0,1.192e-07
3240.0,5.421e-08
3245.0,1.029e-08
3250.0,3.796e-08
3255.0,1.627e-07
3260.0,1.625e-08
3265.0,3.516e-08
3270.0,1.655e-08
3275.0,9.992e-08
3280.0,4.243e-08
3285.0,1.941e-07
3290.0,1.385e-07
3295.0,1.706e-08
3300.0,2.528e-08
3305.0,5.805e-08
3310.0,5.512e-08
3315.0,7.99e-11
3320.0,5.034e-10
3325.0,4.629e-08
3330.0,7.291e-08
3335.0,1.406e-07
3340.0,5.491e-07
3345.0,4.87e-08
3350.0,1.437e-07
3355.0,4.939e-08
3360.0,7.665e-08
3365.0,1.877e-07
3370.0,5.163e-08
3375.0,5.034e-07
3380.0,6.798e-08
3385.0,6.542e-07
3390.0,1.912e-07
3395.0,5.783e-07
3400.0,7.582e-06
3405.0,5.665e-08
3410.0,8.706e-07
3415.0,9.887e-08
3420.0,2.13e-05
3425.0,3.509e-07
3430.0,1.298e-07
3435.0,1.72e-05
3440.0,1.132e-07
3445.0,6.554e-06
3450.0,1.841e-06
3455.0,3.126e-07
3460.0,2.648e-05
3465.0,3.326e-07
3470.0,2.483e-05
3475.0,3.046e-06
3480.0,3.289e-06
3485.0,2.014e-05
3490.0,1.687e-06
3495.0,2.078e-05
3500.0,1.944e-05
3505.0,1.668e-05
3510.0,1.875e-05
3515.0,1.704e-05
3520.0,3.074e-05
3525.0,2.932e-05
3530.0,1.438e-05
3535.0,1.701e-06
3540.0,1.25e-06
3545.0,1.252e-06
3550.0,1.252e-05
3555.0,2.561e-06
3560.0,2.055e-05
3565.0,9.642e-06
3570.0,2.426e-06
3575.0,1.209e-06
3580.0,9.751e-06
3585.0,2.394e-06
3590.0,6.785e-06
3595.0,1.942e-05
3600.0,2.785e-05
3605.0,1.084e-05
3610.0,7.86e-06
3615.0,2.106e-05
3620.0,7.244e-05
3625.0,1.521e-05
3630.0,2.467e-05
3635.0,3.007e-05
3640.0,8.681e-05
3645.0,2.085e-05
3650.0,2.471e-05
3655.0,5.427e-05
3660.0,6.745e-05
3665.0,1.564e-05
3670.0,7.084e-06
3675.0,2.156e-07
3680.0,4.443e-06
3685.0,1.128e-05
3690.0,1.002e-05
3695.0,3.797e-05
3700.0,8.967e-05
3705.0,8.17e-05
3710.0,1.887e-05
3715.0,3.137e-05
3720.0,6.113e-05
3725.0,7.306e-05
3730.0,2.916e-05
3735.0,1.443e-05
3740.0,2.784e-05
3745.0,6.806e-05
3750.0,4.056e-05
3755.0,2.797e-05
3760.0,1.638e-05
3765.0,1.884e-05
3770.0,2.865e-05
3775.0,3.132e-05
3780.0,5.158e-05
3785.0,2.938e-05
3790.0,1.251e-05
3795.0,3.932e-05
3800.0,7.164e-05
3805.0,5.143e-05
3810.0,2.216e-05
3815.0,1.74e-05
3820.0,7.027e-05
3825.0,7.004e-05
3830.0,7.292e-05
3835.0,1.332e-05
3840.0,4.044e-05
3845.0,2.637e-05
3850.0,2.668e-05
3855.0,2.07e-05
3860.0,5.788e-06
3865.0,5.959e-06
3870.0,1.337e-06
3875.0,3.635e-07
3880.0,2.067e-07
3885.0,3.456e-07
3890.0,4.491e-07
3895.0,1.803e-06
3900.0,7.588e-06
3905.0,6.17e-06
3910.0,9.497e-07
3915.0,7.063e-07
3920.0,7.639e-07
3925.0,7.01e-07
3930.0,1.063e-06
3935.0,2.257e-06
3940.0,2.854e-06
3945.0,4.192e-06
3950.0,6.274e-06
3955.0,7.78e-06
3960.0,9.365e-06
3965.0,1.085e-05
3970.0,9.372e-06
3975.0,6.361e-06
3980.0,5.424e-06
3985.0,6.332e-06
3990.0,5.456e-06
3995.0,4.027e-06
4000.0,2.974e-06
