interpolation:linear
wavelength,value
280.0,2.648e-23
280.5,9.27e-22
281.0,5.066e-21
281.5,1.711e-19
282.0,1.41e-18
282.5,5.474e-18
283.0,2.451e-17
283.5,4.57e-17
284.0,7.226e-16
284.5,2.047e-15
285.0,7.083e-16
285.5,4.006e-15
286.0,1.665e-14
286.5,7.947e-14
287.0,2.356e-13
287.5,9.446e-13
288.0,2.556e-11
288.5,3.867e-11
289.0,7.807e-11
289.5,2.01e-10
290.0,5.13e-10
290.5,9.904e-10
291.0,2.025e-09
291.5,5.572e-09
292.0,1.093e-08
292.5,1.434e-08
293.0,2.864e-08
293.5,6.462e-08
294.0,9.572e-08
294.5,1.911e-08
295.0,3.187e-08
295.5,5.167e-08
296.0,8.734e-08
296.5,1.078e-07
297.0,1.32e-07
297.5,3.064e-07
298.0,4.281e-07
298.5,3.93e-07
299.0,7.934e-07
299.5,1.131e-06
300.0,1.143e-06
300.5,1.521e-06
301.0,2.401e-06
301.5,3.389e-06
302.0,2.726e-06
302.5,2.665e-06
303.0,4.956e-06
303.5,6.351e-06
304.0,5.98e-06
304.5,9.089e-06
305.0,1.455e-05
305.5,1.752e-05
306.0,1.735e-05
306.5,2.251e-05
307.0,3.713e-05
307.5,5.566e-05
308.0,6.006e-05
308.5,7.585e-05
309.0,7.279e-05
309.5,7.587e-05
310.0,7.499e-05
310.5,0.0001211
311.0,0.0001523
311.5,0.0001474
312.0,0.0001525
312.5,0.0001927
313.0,0.0002142
313.5,0.0002034
314.0,0.0002777
314.5,0.0002961
315.0,0.0004027
315.5,0.0003074
316.0,0.0003135
316.5,0.0005176
317.0,0.0006412
317.5,0.000641
318.0,0.0005512
318.5,0.0008311
319.0,0.001092
319.5,0.0007568
320.0,0.000893
320.5,0.001371
321.0,0.001482
321.5,0.00145
322.0,0.001255
322.5,0.001103
323.0,0.001257
323.5,0.003164
324.0,0.003847
324.5,0.003519
325.0,0.001622
325.5,0.002338
326.0,0.005467
326.5,0.006228
327.0,0.00592
327.5,0.00538
328.0,0.004011
328.5,0.00522
329.0,0.00747
329.5,0.009028
330.0,0.008657
330.5,0.006003
331.0,0.005857
331.5,0.00654
332.0,0.008355
332.5,0.008914
333.0,0.008511
333.5,0.006793
334.0,0.006813
334.5,0.009071
335.0,0.009236
335.5,0.01155
336.0,0.007989
336.5,0.008404
337.0,0.0065
337.5,0.007909
338.0,0.008665
338.5,0.01087
339.0,0.01085
339.5,0.01038
340.0,0.01126
340.5,0.01026
341.0,0.01077
341.5,0.01004
342.0,0.01205
342.5,0.01132
343.0,0.01234
343.5,0.01155
344.0,0.007925
344.5,0.008524
345.0,0.01148
345.5,0.01181
346.0,0.01009
346.5,0.01146
347.0,0.01221
347.5,0.00985
348.0,0.01134
348.5,0.0114
349.0,0.0106
349.5,0.01049
350.0,0.01299
350.5,0.0137
351.0,0.01219
351.5,0.0117
352.0,0.01267
352.5,0.00995
353.0,0.01258
353.5,0.01349
354.0,0.01404
354.5,0.01424
355.0,0.01417
355.5,0.01282
356.0,0.01344
356.5,0.01148
357.0,0.009482
357.5,0.01162
358.0,0.009218
358.5,0.007883
359.0,0.01102
359.5,0.014
360.0,0.01486
360.5,0.0119
361.0,0.01086
361.5,0.01252
362.0,0.01084
362.5,0.01501
363.0,0.01348
363.5,0.01242
364.0,0.0152
364.5,0.01299
365.0,0.01323
365.5,0.01662
366.0,0.01761
366.5,0.01656
367.0,0.01614
367.5,0.01675
368.0,0.01466
368.5,0.01479
369.0,0.01598
369.5,0.01704
370.0,0.01817
370.5,0.01411
371.0,0.01508
371.5,0.01888
372.0,0.01253
372.5,0.01503
373.0,0.01529
373.5,0.009953
374.0,0.01447
374.5,0.01198
375.0,0.01165
375.5,0.0174
376.0,0.01443
376.5,0.01496
377.0,0.01584
377.5,0.01854
378.0,0.02011
378.5,0.01901
379.0,0.01569
379.5,0.01434
380.0,0.01491
380.5,0.01806
381.0,0.01811
381.5,0.01436
382.0,0.01275
382.5,0.01088
383.0,0.01007
383.5,0.009704
384.0,0.01071
384.5,0.01575
385.0,0.01563
385.5,0.01456
386.0,0.01247
386.5,0.01639
387.0,0.01362
387.5,0.0153
388.0,0.01413
388.5,0.01397
389.0,0.01509
389.5,0.01828
390.0,0.01835
390.5,0.01689
391.0,0.01989
391.5,0.02029
392.0,0.01709
392.5,0.01531
393.0,0.008519
393.5,0.006194
394.0,0.01261
394.5,0.01603
395.0,0.01957
395.5,0.01988
396.0,0.01724
396.5,0.01008
397.0,0.007571
397.5,0.0154
398.0,0.02158
398.5,0.02231
399.0,0.02416
399.5,0.02409
400.0,0.02502
401.0,0.02471
402.0,0.02608
403.0,0.02478
404.0,0.02441
405.0,0.02441
406.0,0.02402
407.0,0.02363
408.0,0.02454
409.0,0.02627
410.0,0.02296
411.0,0.02487
412.0,0.02673
413.0,0.02608
414.0,0.02641
415.0,0.02647
416.0,0.02692
417.0,0.02626
418.0,0.02577
419.0,0.02613
420.0,0.02602
421.0,0.02721
422.0,0.02585
423.0,0.02522
424.0,0.02665
425.0,0.02658
426.0,0.02589
427.0,0.02543
428.0,0.02479
429.0,0.0235
430.0,0.02057
431.0,0.02037
432.0,0.02627
433.0,0.0264
434.0,0.02452
435.0,0.02562
436.0,0.02887
437.0,0.02846
438.0,0.02588
439.0,0.0267
440.0,0.0275
441.0,0.02843
442.0,0.03044
443.0,0.02964
444.0,0.03031
445.0,0.02971
446.0,0.0284
447.0,0.03073
448.0,0.03117
449.0,0.03123
450.0,0.03204
451.0,0.0332
452.0,0.03201
453.0,0.03012
454.0,0.03145
455.0,0.03157
456.0,0.03226
457.0,0.03268
458.0,0.03144
459.0,0.03113
460.0,0.03109
461.0,0.03172
462.0,0.03195
463.0,0.0318
464.0,0.03138
465.0,0.03107
466.0,0.03141
467.0,0.03081
468.0,0.03108
469.0,0.03115
470.0,0.0301
471.0,0.03005
472.0,0.03167
473.0,0.03126
474.0,0.03127
475.0,0.03143
476.0,0.03032
477.0,0.03023
478.0,0.03088
479.0,0.03048
480.0,0.03034
481.0,0.03075
482.0,0.03084
483.0,0.03048
484.0,0.02994
485.0,0.02864
486.0,0.02513
487.0,0.02638
488.0,0.02892
489.0,0.02894
490.0,0.03036
491.0,0.02976
492.0,0.02806
493.0,0.02896
494.0,0.02924
495.0,0.02946
496.0,0.02957
497.0,0.02989
498.0,0.0283
499.0,0.02844
500.0,0.0274
501.0,0.02667
502.0,0.02604
503.0,0.02686
504.0,0.02599
505.0,0.02686
506.0,0.02771
507.0,0.0264
508.0,0.02565
509.0,0.02646
510.0,0.02639
511.0,0.02712
512.0,0.0274
513.0,0.02588
514.0,0.02562
515.0,0.02529
516.0,0.02515
517.0,0.0223
518.0,0.02339
519.0,0.02447
520.0,0.02528
521.0,0.02542
522.0,0.02531
523.0,0.02476
524.0,0.02545
525.0,0.02554
526.0,0.02424
527.0,0.02264
528.0,0.02377
529.0,0.02489
530.0,0.02438
531.0,0.02461
532.0,0.02367
533.0,0.02292
534.0,0.02358
535.0,0.02411
536.0,0.02435
537.0,0.0234
538.0,0.0238
539.0,0.02354
540.0,0.02248
541.0,0.02248
542.0,0.02308
543.0,0.02278
544.0,0.02305
545.0,0.02291
546.0,0.02292
547.0,0.02289
548.0,0.0226
549.0,0.02264
550.0,0.02286
551.0,0.02255
552.0,0.02266
553.0,0.0222
554.0,0.02266
555.0,0.02262
556.0,0.02224
557.0,0.02144
558.0,0.02114
559.0,0.0206
560.0,0.0207
561.0,0.02082
562.0,0.02052
563.0,0.02092
564.0,0.02023
565.0,0.01994
566.0,0.01955
567.0,0.01978
568.0,0.0194
569.0,0.0188
570.0,0.01869
571.0,0.0185
572.0,0.01879
573.0,0.01891
574.0,0.01877
575.0,0.01836
576.0,0.01818
577.0,0.01839
578.0,0.01819
579.0,0.01839
580.0,0.01893
581.0,0.0192
582.0,0.0197
583.0,0.01987
584.0,0.02011
585.0,0.01967
586.0,0.01929
587.0,0.01963
588.0,0.01905
589.0,0.01627
590.0,0.01693
591.0,0.01818
592.0,0.0177
593.0,0.01817
594.0,0.01783
595.0,0.01726
596.0,0.01831
597.0,0.01776
598.0,0.01773
599.0,0.01784
600.0,0.0178
601.0,0.01767
602.0,0.01757
603.0,0.01792
604.0,0.01828
605.0,0.01826
606.0,0.01826
607.0,0.01852
608.0,0.01842
609.0,0.01856
610.0,0.01854
611.0,0.01874
612.0,0.01879
613.0,0.01866
614.0,0.0185
615.0,0.01899
616.0,0.01844
617.0,0.01847
618.0,0.01924
619.0,0.01909
620.0,0.01924
621.0,0.01928
622.0,0.01907
623.0,0.01878
624.0,0.01844
625.0,0.01838
626.0,0.01861
627.0,0.01866
628.0,0.01582
629.0,0.01749
630.0,0.01706
631.0,0.01801
632.0,0.01805
633.0,0.01884
634.0,0.01894
635.0,0.01943
636.0,0.01932
637.0,0.01982
638.0,0.02021
639.0,0.02012
640.0,0.02011
641.0,0.02023
642.0,0.0203
643.0,0.02068
644.0,0.02074
645.0,0.02065
646.0,0.0201
647.0,0.01909
648.0,0.01913
649.0,0.01866
650.0,0.01961
651.0,0.02068
652.0,0.01902
653.0,0.0206
654.0,0.02064
655.0,0.01911
656.0,0.01722
657.0,0.018
658.0,0.02032
659.0,0.0209
660.0,0.02099
661.0,0.02139
662.0,0.02166
663.0,0.02133
664.0,0.02162
665.0,0.02168
666.0,0.0218
667.0,0.02187
668.0,0.02204
669.0,0.02244
670.0,0.02242
671.0,0.0225
672.0,0.02238
673.0,0.0228
674.0,0.02278
675.0,0.02265
676.0,0.02287
677.0,0.0227
678.0,0.02283
679.0,0.02252
680.0,0.02273
681.0,0.02258
682.0,0.02255
683.0,0.02249
684.0,0.02232
685.0,0.02264
686.0,0.02233
687.0,0.01007
688.0,0.01189
689.0,0.01194
690.0,0.01272
691.0,0.01397
692.0,0.0155
693.0,0.01565
694.0,0.01611
695.0,0.01808
696.0,0.01822
697.0,0.02196
698.0,0.02079
699.0,0.0188
700.0,0.0186
701.0,0.01777
702.0,0.01813
703.0,0.01884
704.0,0.02008
705.0,0.02015
706.0,0.02046
707.0,0.02049
708.0,0.02119
709.0,0.02171
710.0,0.02081
711.0,0.02116
712.0,0.0217
713.0,0.0207
714.0,0.02118
715.0,0.01989
716.0,0.01926
717.0,0.0131
718.0,0.01249
719.0,0.01185
720.0,0.01165
721.0,0.01425
722.0,0.01693
723.0,0.01569
724.0,0.01371
725.0,0.01297
726.0,0.0127
727.0,0.01491
728.0,0.01207
729.0,0.01354
730.0,0.01359
731.0,0.01298
732.0,0.01499
733.0,0.01704
734.0,0.01823
735.0,0.01766
736.0,0.01685
737.0,0.01737
738.0,0.01952
739.0,0.01912
740.0,0.02029
741.0,0.02037
742.0,0.02089
743.0,0.02136
744.0,0.02138
745.0,0.02171
746.0,0.0218
747.0,0.02193
748.0,0.02191
749.0,0.02169
750.0,0.02169
751.0,0.02147
752.0,0.0216
753.0,0.02175
754.0,0.02177
755.0,0.02159
756.0,0.02164
757.0,0.02164
758.0,0.02127
759.0,0.01879
760.0,0.001952
761.0,0.001042
762.0,0.005727
763.0,0.002916
764.0,0.004316
765.0,0.005675
766.0,0.006911
767.0,0.008992
768.0,0.01282
769.0,0.01463
770.0,0.01787
771.0,0.01969
772.0,0.02032
773.0,0.02061
774.0,0.02064
775.0,0.02057
776.0,0.02087
777.0,0.0206
778.0,0.02043
779.0,0.02045
780.0,0.02036
781.0,0.02039
782.0,0.02055
783.0,0.02022
784.0,0.02038
785.0,0.02016
786.0,0.02015
787.0,0.01863
788.0,0.0184
789.0,0.01784
790.0,0.0161
791.0,0.01725
792.0,0.01742
793.0,0.017
794.0,0.01908
795.0,0.0188
796.0,0.01617
797.0,0.01713
798.0,0.019
799.0,0.0182
800.0,0.01678
801.0,0.01624
802.0,0.01668
803.0,0.01576
804.0,0.01642
805.0,0.01698
806.0,0.01871
807.0,0.01786
808.0,0.0179
809.0,0.01646
810.0,0.01623
811.0,0.01417
812.0,0.01337
813.0,0.01266
814.0,0.009655
815.0,0.009477
816.0,0.01015
817.0,0.01018
818.0,0.009996
819.0,0.01063
820.0,0.01166
821.0,0.01354
822.0,0.01223
823.0,0.005934
824.0,0.01139
825.0,0.01506
826.0,0.01168
827.0,0.01373
828.0,0.009356
829.0,0.01298
830.0,0.01259
831.0,0.01235
832.0,0.01188
833.0,0.01235
834.0,0.01159
835.0,0.01491
836.0,0.01306
837.0,0.01474
838.0,0.01338
839.0,0.0155
840.0,0.01629
841.0,0.01546
842.0,0.01597
843.0,0.01701
844.0,0.01621
845.0,0.01731
846.0,0.01765
847.0,0.01752
848.0,0.01701
849.0,0.01648
850.0,0.01574
851.0,0.01602
852.0,0.01638
853.0,0.01607
854.0,0.01374
855.0,0.01526
856.0,0.01665
857.0,0.01726
858.0,0.01705
859.0,0.01738
860.0,0.01752
861.0,0.0174
862.0,0.01772
863.0,0.01811
864.0,0.01726
865.0,0.01715
866.0,0.01541
867.0,0.01609
868.0,0.01752
869.0,0.01718
870.0,0.01768
871.0,0.01741
872.0,0.01739
873.0,0.01735
874.0,0.01715
875.0,0.01674
876.0,0.01691
877.0,0.01705
878.0,0.01722
879.0,0.01695
880.0,0.01651
881.0,0.0161
882.0,0.01621
883.0,0.01649
884.0,0.01631
885.0,0.0162
886.0,0.01459
887.0,0.0156
888.0,0.01534
889.0,0.01637
890.0,0.01517
891.0,0.01599
892.0,0.01363
893.0,0.01278
894.0,0.01045
895.0,0.008445
896.0,0.008145
897.0,0.007024
898.0,0.007544
899.0,0.004602
900.0,0.006995
901.0,0.004849
902.0,0.00517
903.0,0.006092
904.0,0.009924
905.0,0.00888
906.0,0.008319
907.0,0.005632
908.0,0.006423
909.0,0.006241
910.0,0.004403
911.0,0.005502
912.0,0.007867
913.0,0.00456
914.0,0.006177
915.0,0.00447
916.0,0.004937
917.0,0.005561
918.0,0.004551
919.0,0.006075
920.0,0.007794
921.0,0.007441
922.0,0.005813
923.0,0.007407
924.0,0.005474
925.0,0.005268
926.0,0.005233
927.0,0.006136
928.0,0.003171
929.0,0.002704
930.0,0.002017
931.0,0.001895
932.0,0.00135
933.0,0.001089
934.0,0.000591
935.0,0.001107
936.0,0.0006861
937.0,0.0006921
938.0,0.0008484
939.0,0.00178
940.0,0.002162
941.0,0.001593
942.0,0.001843
943.0,0.001198
944.0,0.001263
945.0,0.001618
946.0,0.0008128
947.0,0.001611
948.0,0.001182
949.0,0.002161
950.0,0.0005879
951.0,0.002124
952.0,0.00115
953.0,0.001465
954.0,0.001791
955.0,0.001615
956.0,0.001469
957.0,0.001139
958.0,0.002169
959.0,0.001642
960.0,0.001897
961.0,0.002222
962.0,0.002068
963.0,0.002711
964.0,0.00239
965.0,0.002496
966.0,0.002867
967.0,0.003093
968.0,0.007384
969.0,0.005041
970.0,0.006154
971.0,0.006663
972.0,0.006951
973.0,0.00417
974.0,0.003865
975.0,0.004944
976.0,0.004516
977.0,0.006793
978.0,0.004758
979.0,0.005732
980.0,0.005595
981.0,0.007103
982.0,0.006168
983.0,0.005707
984.0,0.008988
985.0,0.005867
986.0,0.01138
987.0,0.00871
988.0,0.00936
989.0,0.01201
990.0,0.008525
991.0,0.0119
992.0,0.01223
993.0,0.009945
994.0,0.01245
995.0,0.01278
996.0,0.01242
997.0,0.01248
998.0,0.01229
999.0,0.01236
1000.0,0.01212
1001.0,0.01253
1002.0,0.01028
1003.0,0.01231
1004.0,0.01125
1005.0,0.01144
1006.0,0.01188
1007.0,0.01208
1008.0,0.01175
1009.0,0.0113
1010.0,0.01123
1011.0,0.01189
1012.0,0.01169
1013.0,0.01211
1014.0,0.01203
1015.0,0.01197
1016.0,0.01179
1017.0,0.01168
1018.0,0.01192
1019.0,0.0108
1020.0,0.01179
1021.0,0.01188
1022.0,0.01154
1023.0,0.01165
1024.0,0.01069
1025.0,0.01182
1026.0,0.01143
1027.0,0.01171
1028.0,0.01149
1029.0,0.01119
1030.0,0.01151
1031.0,0.01151
1032.0,0.01139
1033.0,0.01131
1034.0,0.01126
1035.0,0.01131
1036.0,0.0112
1037.0,0.0111
1038.0,0.01109
1039.0,0.011
1040.0,0.01093
1041.0,0.01087
1042.0,0.01079
1043.0,0.01069
1044.0,0.01066
1045.0,0.01044
1046.0,0.01026
1047.0,0.01027
1048.0,0.01023
1049.0,0.01011
1050.0,0.009967
1051.0,0.009841
1052.0,0.009696
1053.0,0.009489
1054.0,0.009374
1055.0,0.009222
1056.0,0.009014
1057.0,0.008864
1058.0,0.008517
1059.0,0.008364
1060.0,0.008287
1061.0,0.008187
1062.0,0.008165
1063.0,0.007896
1064.0,0.008035
1065.0,0.007651
1066.0,0.007732
1067.0,0.007808
1068.0,0.00744
1069.0,0.007402
1070.0,0.007738
1071.0,0.008196
1072.0,0.007795
1073.0,0.007768
1074.0,0.008544
1075.0,0.006679
1076.0,0.00862
1077.0,0.007615
1078.0,0.006866
1079.0,0.008833
1080.0,0.00738
1081.0,0.006355
1082.0,0.007924
1083.0,0.008195
1084.0,0.006405
1085.0,0.007634
1086.0,0.005879
1087.0,0.006286
1088.0,0.008049
1089.0,0.00621
1090.0,0.005901
1091.0,0.007338
1092.0,0.007661
1093.0,0.004247
1094.0,0.00648
1095.0,0.004004
1096.0,0.003479
1097.0,0.007699
1098.0,0.003451
1099.0,0.003328
1100.0,0.002622
1101.0,0.002942
1102.0,0.002493
1103.0,0.002055
1104.0,0.002397
1105.0,0.002716
1106.0,0.001258
1107.0,0.002561
1108.0,0.001404
1109.0,0.001525
1110.0,0.001857
1111.0,0.0009065
1112.0,0.00169
1113.0,0.000691
1114.0,0.0007654
1115.0,0.0006198
1116.0,0.0004737
1117.0,0.0001703
1118.0,0.0005132
1119.0,0.000251
1120.0,0.0003148
1121.0,0.0004179
1122.0,0.0001731
1123.0,0.0002817
1124.0,0.0002369
1125.0,0.0003087
1126.0,0.0001049
1127.0,0.0003461
1128.0,0.000204
1129.0,0.0002161
1130.0,0.0001408
1131.0,0.0006534
1132.0,0.0005098
1133.0,0.0003189
1134.0,7.949e-05
1135.0,2.979e-05
1136.0,0.0002623
1137.0,0.0006281
1138.0,0.0004404
1139.0,0.0006652
1140.0,0.000549
1141.0,0.0004146
1142.0,0.0004768
1143.0,0.0006778
1144.0,0.0002329
1145.0,0.0002957
1146.0,0.0003178
1147.0,0.0001093
1148.0,0.0005772
1149.0,0.0004568
1150.0,0.000246
1151.0,0.0004188
1152.0,0.0005167
1153.0,0.0005061
1154.0,0.0002783
1155.0,0.0006654
1156.0,0.0006007
1157.0,0.0007191
1158.0,0.0006918
1159.0,0.0007717
1160.0,0.0006905
1161.0,0.001198
1162.0,0.001497
1163.0,0.002212
1164.0,0.002053
1165.0,0.001223
1166.0,0.001996
1167.0,0.002054
1168.0,0.001935
1169.0,0.002231
1170.0,0.003021
1171.0,0.002529
1172.0,0.00408
1173.0,0.002652
1174.0,0.001283
1175.0,0.003321
1176.0,0.005665
1177.0,0.003842
1178.0,0.002038
1179.0,0.005284
1180.0,0.004401
1181.0,0.002982
1182.0,0.001194
1183.0,0.003167
1184.0,0.003811
1185.0,0.00283
1186.0,0.003927
1187.0,0.002854
1188.0,0.001252
1189.0,0.003034
1190.0,0.004287
1191.0,0.00279
1192.0,0.004482
1193.0,0.004893
1194.0,0.004242
1195.0,0.002995
1196.0,0.002441
1197.0,0.004229
1198.0,0.004054
1199.0,0.001854
1200.0,0.003498
1201.0,0.002651
1202.0,0.003783
1203.0,0.002678
1204.0,0.003826
1205.0,0.004905
1206.0,0.005738
1207.0,0.003277
1208.0,0.003706
1209.0,0.003985
1210.0,0.005195
1211.0,0.004277
1212.0,0.002533
1213.0,0.004702
1214.0,0.002979
1215.0,0.002664
1216.0,0.005241
1217.0,0.004665
1218.0,0.005142
1219.0,0.004831
1220.0,0.005127
1221.0,0.00563
1222.0,0.005205
1223.0,0.00497
1224.0,0.004449
1225.0,0.005034
1226.0,0.005851
1227.0,0.003872
1228.0,0.006607
1229.0,0.005702
1230.0,0.005383
1231.0,0.006972
1232.0,0.006934
1233.0,0.004514
1234.0,0.007455
1235.0,0.006942
1236.0,0.007366
1237.0,0.006312
1238.0,0.007344
1239.0,0.007273
1240.0,0.007414
1241.0,0.006903
1242.0,0.007247
1243.0,0.007262
1244.0,0.007038
1245.0,0.007236
1246.0,0.007233
1247.0,0.006951
1248.0,0.006705
1249.0,0.006946
1250.0,0.006664
1251.0,0.006137
1252.0,0.006736
1253.0,0.005661
1254.0,0.005105
1255.0,0.006511
1256.0,0.004646
1257.0,0.004321
1258.0,0.005566
1259.0,0.003382
1260.0,0.003611
1261.0,0.001989
1262.0,0.001486
1263.0,0.001489
1264.0,0.0008607
1265.0,0.001468
1266.0,0.001058
1267.0,0.001311
1268.0,0.00092
1269.0,0.0003515
1270.0,0.001189
1271.0,0.002133
1272.0,0.002194
1273.0,0.002044
1274.0,0.00229
1275.0,0.002477
1276.0,0.00286
1277.0,0.003355
1278.0,0.004131
1279.0,0.004167
1280.0,0.004364
1281.0,0.004703
1282.0,0.005116
1283.0,0.005327
1284.0,0.005638
1285.0,0.005695
1286.0,0.00608
1287.0,0.005753
1288.0,0.005758
1289.0,0.003783
1290.0,0.005773
1291.0,0.006175
1292.0,0.00318
1293.0,0.005543
1294.0,0.00516
1295.0,0.003791
1296.0,0.00296
1297.0,0.002522
1298.0,0.003677
1299.0,0.005184
1300.0,0.002051
1301.0,0.001941
1302.0,0.003617
1303.0,0.003055
1304.0,0.001007
1305.0,0.003179
1306.0,0.002542
1307.0,0.001456
1308.0,0.002291
1309.0,0.002278
1310.0,0.001568
1311.0,0.002608
1312.0,0.001848
1313.0,0.001418
1314.0,0.000724
1315.0,0.00071
1316.0,0.002071
1317.0,0.002501
1318.0,0.002664
1319.0,0.0009901
1320.0,0.0006972
1321.0,0.001215
1322.0,0.000739
1323.0,0.0003806
1324.0,0.0009493
1325.0,0.001136
1326.0,0.0008565
1327.0,0.000675
1328.0,0.0003656
1329.0,0.0002282
1330.0,0.0003055
1331.0,0.0001771
1332.0,0.000179
1333.0,0.000251
1334.0,0.0002346
1335.0,0.0003058
1336.0,0.0002334
1337.0,0.0002091
1338.0,0.0002195
1339.0,0.0002191
1340.0,0.0002131
1341.0,0.0002025
1342.0,0.0002127
1343.0,0.0001424
1344.0,8.505e-05
1345.0,0.0001223
1346.0,6.034e-05
1347.0,6.113e-05
1348.0,3.941e-06
1349.0,1.414e-05
1350.0,1.466e-05
1351.0,3.544e-06
1352.0,9.533e-07
1353.0,4.852e-08
1354.0,1.668e-07
1355.0,1.343e-09
1356.0,2.35e-08
1357.0,3.571e-08
1358.0,1.577e-09
1359.0,1.987e-10
1360.0,7.181e-10
1361.0,8.033e-13
1362.0,2.198e-15
1363.0,9.658e-10
1364.0,3.987e-10
1365.0,7.674e-16
1366.0,4.186e-09
1367.0,1.709e-09
1368.0,5.927e-18
1369.0,1.47e-10
1370.0,7.239e-11
1371.0,4.104e-12
1372.0,9.272e-10
1373.0,1.868e-08
1374.0,8.665e-08
1375.0,1.572e-07
1376.0,1.41e-07
1377.0,6.439e-08
1378.0,6.296e-07
1379.0,2.691e-08
1380.0,3.867e-08
1381.0,1.007e-09
1382.0,8.132e-10
1383.0,1.216e-11
1384.0,1.594e-10
1385.0,7.624e-10
1386.0,7.172e-10
1387.0,8.675e-08
1388.0,1.706e-09
1389.0,2.929e-07
1390.0,2.514e-07
1391.0,1.672e-07
1392.0,1.084e-08
1393.0,5.743e-08
1394.0,2.96e-08
1395.0,2.169e-10
1396.0,1.049e-12
1397.0,2.262e-08
1398.0,6.688e-07
1399.0,4.231e-07
1400.0,4.485e-13
1401.0,1.861e-12
1402.0,1.172e-06
1403.0,1.468e-06
1404.0,4.461e-07
1405.0,1.028e-10
1406.0,1.153e-06
1407.0,1.016e-07
1408.0,9.384e-07
1409.0,3.128e-07
1410.0,2.505e-07
1411.0,1.263e-06
1412.0,1.704e-06
1413.0,1.774e-05
1414.0,1.956e-07
1415.0,9.341e-08
1416.0,2.932e-05
1417.0,8.659e-06
1418.0,9.805e-06
1419.0,1.509e-06
1420.0,5.959e-06
1421.0,6.429e-06
1422.0,3.77e-05
1423.0,7.232e-06
1424.0,1.357e-05
1425.0,1.983e-05
1426.0,2.269e-05
1427.0,4.222e-05
1428.0,2.955e-06
1429.0,3.109e-05
1430.0,5.365e-05
1431.0,5.899e-05
1432.0,2.297e-06
1433.0,3.701e-05
1434.0,1.862e-05
1435.0,1.804e-05
1436.0,3.554e-05
1437.0,2.717e-05
1438.0,1.122e-05
1439.0,4.831e-05
1440.0,3.607e-05
1441.0,2.697e-05
1442.0,2.989e-05
1443.0,3.812e-05
1444.0,5.308e-05
1445.0,4.078e-05
1446.0,1.809e-05
1447.0,2.851e-05
1448.0,0.000101
1449.0,8.68e-05
1450.0,2.101e-05
1451.0,8.274e-06
1452.0,5.109e-05
1453.0,6.734e-05
1454.0,0.0001185
1455.0,5.453e-05
1456.0,7.269e-05
1457.0,9.908e-05
1458.0,0.000119
1459.0,0.0001397
1460.0,7.153e-05
1461.0,7.347e-05
1462.0,0.0001092
1463.0,3.422e-05
1464.0,0.0001304
1465.0,7.804e-05
1466.0,5.161e-05
1467.0,2.64e-05
1468.0,6.108e-05
1469.0,7.578e-05
1470.0,3.641e-05
1471.0,1.291e-05
1472.0,3.46e-05
1473.0,5.381e-05
1474.0,8.006e-05
1475.0,0.000154
1476.0,5.354e-05
1477.0,5.346e-05
1478.0,4.995e-05
1479.0,9.747e-05
1480.0,4.578e-05
1481.0,9.214e-05
1482.0,4.478e-05
1483.0,0.0001202
1484.0,0.0001156
1485.0,9.956e-05
1486.0,9.695e-05
1487.0,4.32e-05
1488.0,7.833e-05
1489.0,0.0001589
1490.0,0.0001857
1491.0,0.0002238
1492.0,0.0001384
1493.0,0.0001826
1494.0,0.0003234
1495.0,0.0002245
1496.0,0.0001821
1497.0,0.0006906
1498.0,0.0004474
1499.0,0.0003971
1500.0,0.001307
1501.0,0.001139
1502.0,0.00117
1503.0,0.0004908
1504.0,0.0001397
1505.0,0.0004039
1506.0,0.001639
1507.0,0.001471
1508.0,0.001633
1509.0,0.0006472
1510.0,0.002003
1511.0,0.001319
1512.0,0.002124
1513.0,0.0008895
1514.0,0.00081
1515.0,0.002413
1516.0,0.002129
1517.0,0.001318
1518.0,0.001799
1519.0,0.001188
1520.0,0.001765
1521.0,0.003859
1522.0,0.002362
1523.0,0.004
1524.0,0.002877
1525.0,0.001893
1526.0,0.002133
1527.0,0.002497
1528.0,0.003565
1529.0,0.002964
1530.0,0.002388
1531.0,0.002757
1532.0,0.004119
1533.0,0.00441
1534.0,0.004577
1535.0,0.004024
1536.0,0.004161
1537.0,0.004682
1538.0,0.004423
1539.0,0.004264
1540.0,0.004416
1541.0,0.004306
1542.0,0.00413
1543.0,0.004462
1544.0,0.004318
1545.0,0.004584
1546.0,0.004056
1547.0,0.004324
1548.0,0.004348
1549.0,0.004613
1550.0,0.004465
1551.0,0.004306
1552.0,0.004387
1553.0,0.004469
1554.0,0.004283
1555.0,0.004462
1556.0,0.004354
1557.0,0.004471
1558.0,0.004473
1559.0,0.004426
1560.0,0.004361
1561.0,0.004421
1562.0,0.004278
1563.0,0.004191
1564.0,0.004153
1565.0,0.004471
1566.0,0.004224
1567.0,0.00428
1568.0,0.004173
1569.0,0.004408
1570.0,0.004377
1571.0,0.004365
1572.0,0.004353
1573.0,0.004209
1574.0,0.003944
1575.0,0.003847
1576.0,0.003468
1577.0,0.003337
1578.0,0.003358
1579.0,0.003121
1580.0,0.003258
1581.0,0.003226
1582.0,0.003238
1583.0,0.003158
1584.0,0.003736
1585.0,0.003892
1586.0,0.003821
1587.0,0.003682
1588.0,0.004035
1589.0,0.003962
1590.0,0.003876
1591.0,0.004077
1592.0,0.003979
1593.0,0.004215
1594.0,0.004131
1595.0,0.004148
1596.0,0.003932
1597.0,0.003763
1598.0,0.004185
1599.0,0.004192
1600.0,0.004273
1601.0,0.004049
1602.0,0.003924
1603.0,0.004249
1604.0,0.004184
1605.0,0.004234
1606.0,0.004163
1607.0,0.004217
1608.0,0.003882
1609.0,0.004037
1610.0,0.003916
1611.0,0.003989
1612.0,0.004136
1613.0,0.003939
1614.0,0.004071
1615.0,0.003999
1616.0,0.003942
1617.0,0.003776
1618.0,0.004084
1619.0,0.003731
1620.0,0.003958
1621.0,0.003911
1622.0,0.00395
1623.0,0.004045
1624.0,0.003842
1625.0,0.003774
1626.0,0.003785
1627.0,0.003902
1628.0,0.00374
1629.0,0.003851
1630.0,0.003745
1631.0,0.003408
1632.0,0.003629
1633.0,0.002825
1634.0,0.00366
1635.0,0.002789
1636.0,0.003285
1637.0,0.003489
1638.0,0.002103
1639.0,0.003393
1640.0,0.001961
1641.0,0.003155
1642.0,0.003549
1643.0,0.001562
1644.0,0.003734
1645.0,0.002341
1646.0,0.001508
1647.0,0.003693
1648.0,0.001535
1649.0,0.003093
1650.0,0.003263
1651.0,0.001229
1652.0,0.002929
1653.0,0.003474
1654.0,0.001634
1655.0,0.003251
1656.0,0.002469
1657.0,0.00281
1658.0,0.003535
1659.0,0.003265
1660.0,0.003254
1661.0,0.003384
1662.0,0.002607
1663.0,0.003464
1664.0,0.003355
1665.0,0.001578
1666.0,0.000187
1667.0,0.001613
1668.0,0.002951
1669.0,0.003101
1670.0,0.003431
1671.0,0.002984
1672.0,0.003286
1673.0,0.003404
1674.0,0.002645
1675.0,0.002837
1676.0,0.003251
1677.0,0.002735
1678.0,0.002138
1679.0,0.003341
1680.0,0.002867
1681.0,0.002141
1682.0,0.003267
1683.0,0.003382
1684.0,0.00119
1685.0,0.003321
1686.0,0.00331
1687.0,0.002163
1688.0,0.003026
1689.0,0.003125
1690.0,0.002815
1691.0,0.001311
1692.0,0.00253
1693.0,0.003315
1694.0,0.002254
1695.0,0.002997
1696.0,0.00325
1697.0,0.0008297
1698.0,0.002818
1699.0,0.002923
1700.0,0.002364
1702.0,0.002797
1705.0,0.002166
1710.0,0.001903
1715.0,0.002214
1720.0,0.00233
1725.0,0.001247
1730.0,0.001964
1735.0,0.001463
1740.0,0.001617
1745.0,0.001894
1750.0,0.0009381
1755.0,0.001254
1760.0,0.0007859
1765.0,0.0006609
1770.0,0.0004697
1775.0,0.0003647
1780.0,0.0002006
1785.0,8.049e-05
1790.0,5.269e-05
1795.0,1.641e-05
1800.0,1.129e-05
1805.0,4.484e-06
1810.0,2.911e-06
1815.0,8.423e-07
1820.0,2.107e-07
1825.0,2.75e-07
1830.0,6.704e-10
1835.0,1.015e-09
1840.0,5.924e-12
1845.0,6.334e-10
1850.0,2.86e-10
1855.0,2.733e-11
1860.0,1.566e-09
1865.0,2.183e-09
1870.0,1.195e-14
1875.0,2.159e-14
1880.0,1.15e-08
1885.0,6.128e-09
1890.0,3.361e-08
1895.0,1.95e-08
1900.0,8.337e-11
1905.0,5.679e-11
1910.0,2.75e-09
1915.0,2.68e-09
1920.0,7.028e-08
1925.0,1.651e-07
1930.0,9.537e-08
1935.0,7.27e-07
1940.0,7.219e-07
1945.0,2.974e-06
1950.0,5.785e-06
1955.0,5.157e-06
1960.0,9.078e-06
1965.0,8.259e-05
1970.0,0.0001543
1975.0,0.0001893
1980.0,7.307e-05
1985.0,0.0001269
1990.0,0.0004226
1995.0,0.0003415
2000.0,0.0005838
2005.0,0.0002751
2010.0,0.00118
2015.0,0.0002599
2020.0,0.0005015
2025.0,0.000907
2030.0,0.0005797
2035.0,0.001166
2040.0,0.0008439
2045.0,0.0009347
2050.0,0.001377
2055.0,0.0009207
2060.0,0.0007969
2065.0,0.00109
2070.0,0.0009296
2075.0,0.001298
2080.0,0.001332
2085.0,0.001317
2090.0,0.001383
2095.0,0.001234
2100.0,0.0008675
2105.0,0.001244
2110.0,0.0009325
2115.0,0.001265
2120.0,0.0008571
2125.0,0.001091
2130.0,0.001296
2135.0,0.001377
2140.0,0.001413
2145.0,0.001394
2150.0,0.0008309
2155.0,0.0008037
2160.0,0.0008875
2165.0,0.0007423
2170.0,0.0009791
2175.0,0.000717
2180.0,0.0009195
2185.0,0.0005799
2190.0,0.0008546
2195.0,0.0007791
2200.0,0.0001817
2205.0,0.0004963
2210.0,0.001069
2215.0,0.0007199
2220.0,0.0008196
2225.0,0.000682
2230.0,0.0006958
2235.0,0.0005807
2240.0,0.0005581
2245.0,0.0003484
2250.0,0.0005448
2255.0,0.0002316
2260.0,0.0002053
2265.0,0.0003358
2270.0,0.0001471
2275.0,0.00013
2280.0,0.0003182
2285.0,0.000133
2290.0,0.0001434
2295.0,0.0001293
2300.0,6.467e-05
2305.0,7.806e-05
2310.0,0.0003474
2315.0,8.22e-05
2320.0,2.98e-05
2325.0,0.000191
2330.0,0.0001065
2335.0,0.0001463
2340.0,2.363e-05
2345.0,3.143e-05
2350.0,1.915e-05
2355.0,2.44e-05
2360.0,3.359e-05
2365.0,0.000101
2370.0,3.973e-06
2375.0,2.137e-05
2380.0,5.443e-05
2385.0,7.823e-06
2390.0,9.571e-06
2395.0,1.257e-05
2400.0,1.461e-05
2405.0,2.185e-05
2410.0,1.859e-05
2415.0,4.006e-06
2420.0,3.42e-06
2425.0,4.542e-06
2430.0,8.697e-06
2435.0,1.6e-06
2440.0,9.128e-06
2445.0,2.276e-06
2450.0,1.404e-06
2455.0,4.578e-06
2460.0,3.672e-06
2465.0,2.505e-06
2470.0,1.648e-06
2475.0,1.598e-06
2480.0,7.491e-07
2485.0,4.862e-07
2490.0,2.796e-07
2495.0,2.419e-07
2500.0,6.001e-07
2505.0,1.22e-07
2510.0,1.795e-07
2515.0,3.857e-08
2520.0,2.136e-08
2525.0,2.436e-09
2530.0,1.696e-11
2535.0,3.751e-12
2540.0,8.899e-12
2545.0,6.902e-16
2550.0,2.798e-18
2555.0,1.343e-14
2560.0,4.031e-16
2565.0,9.024e-20
2570.0,2.687e-24
2575.0,1.7e-34
2580.0,1.772e-28
2585.0,3.705e-42
2590.0,2.311e-38
2595.0,4.497e-40
2600.0,3.703e-35
2605.0,4.0920000000000004e-42
2610.0,1.4089999999999998e-41
2615.0,1.4009999999999999e-45
2620.0,1.241e-35
2625.0,2.2730000000000002e-35
2630.0,0.0
2635.0,1.184e-21
2640.0,2.562e-22
2645.0,1.117e-24
2650.0,1.113e-25
2655.0,1.338e-34
2660.0,1.127e-31
2665.0,1.121e-44
2670.0,0.0
2675.0,5.464999999999999e-44
2680.0,2.284e-30
2685.0,2.182e-31
2690.0,8.165e-31
2695.0,3.203e-33
2700.0,9.329999999999999e-29
2705.0,2.6460000000000004e-26
2710.0,2.107e-31
2715.0,2.661e-29
2720.0,0.0
2725.0,5.958e-27
2730.0,1.737e-24
2735.0,1.9810000000000003e-26
2740.0,3.5780000000000004e-32
2745.0,4.613e-27
2750.0,2.586e-26
2755.0,4.16e-28
2760.0,6.232999999999999e-23
2765.0,2.925e-29
2770.0,1.4380000000000002e-26
2775.0,1.779e-23
2780.0,8.263e-21
2785.0,3.1020000000000004e-20
2790.0,7.074e-18
2795.0,1.583e-18
2800.0,4.968e-15
2805.0,9.289e-17
2810.0,3.725e-13
2815.0,1.111e-13
2820.0,1.357e-15
2825.0,2.671e-10
2830.0,2.59e-10
2835.0,3.567e-15
2840.0,7.634e-12
2845.0,2.642e-09
2850.0,4.572e-11
2855.0,1.826e-11
2860.0,9.534e-10
2865.0,7e-09
2870.0,1.787e-10
2875.0,1.704e-08
2880.0,1.074e-08
2885.0,1.769e-08
2890.0,7.526e-09
2895.0,1.282e-07
2900.0,3.573e-08
2905.0,4.135e-09
2910.0,1.307e-07
2915.0,5.548e-08
2920.0,1.377e-07
2925.0,4.908e-08
2930.0,2.971e-07
2935.0,3.276e-07
2940.0,7.333e-08
2945.0,6.297e-08
2950.0,2.542e-07
2955.0,1.132e-07
2960.0,2.246e-07
2965.0,3.803e-07
2970.0,1.49e-08
2975.0,3.774e-08
2980.0,5.874e-08
2985.0,3.461e-07
2990.0,5.418e-07
2995.0,2.001e-07
3000.0,3.798e-07
3005.0,1.286e-07
3010.0,3.336e-07
3015.0,2.57e-07
3020.0,2.317e-08
3025.0,3.533e-07
3030.0,2.788e-07
3035.0,1.058e-07
3040.0,8.268e-08
3045.0,1.776e-07
3050.0,4.025e-08
3055.0,9.852e-09
3060.0,2.764e-07
3065.0,1.17e-07
3070.0,6.576e-08
3075.0,2.577e-07
3080.0,1.497e-07
3085.0,6.61e-08
3090.0,8.988e-08
3095.0,2.211e-08
3100.0,1.796e-07
3105.0,3.366e-08
3110.0,2.818e-08
3115.0,8.454e-08
3120.0,4.144e-07
3125.0,5.639e-07
3130.0,2.418e-07
3135.0,4.891e-07
3140.0,1.289e-07
3145.0,1.263e-07
3150.0,2.666e-07
3155.0,2.282e-07
3160.0,3.813e-07
3165.0,7.048e-07
3170.0,7.768e-07
3175.0,3.655e-07
3180.0,4.767e-07
3185.0,2.998e-07
3190.0,1.589e-07
3195.0,8.722e-08
3200.0,1.231e-08
3205.0,8.042e-09
3210.0,3.35e-09
3215.0,1.362e-08
3220.0,4.782e-08
3225.0,5.499e-09
3230.0,9.133e-09
3235.0,2.559e-07
3240.0,1.164e-07
3245.0,2.209e-08
3250.0,8.148e-08
3255.0,3.491e-07
3260.0,3.486e-08
3265.0,7.546e-08
3270.0,3.553e-08
3275.0,2.144e-07
3280.0,9.107e-08
3285.0,4.028e-07
3290.0,2.969e-07
3295.0,3.656e-08
3300.0,5.426e-08
3305.0,1.246e-07
3310.0,1.183e-07
3315.0,1.715e-10
3320.0,1.081e-09
3325.0,9.936e-08
3330.0,1.531e-07
3335.0,2.958e-07
3340.0,6.401e-07
3345.0,1.045e-07
3350.0,2.794e-07
3355.0,1.058e-07
3360.0,1.632e-07
3365.0,3.012e-07
3370.0,1.108e-07
3375.0,6.012e-07
3380.0,1.459e-07
3385.0,7.502e-07
3390.0,3.466e-07
3395.0,6.915e-07
3400.0,7.176e-06
3405.0,1.216e-07
3410.0,9.269e-07
3415.0,2.093e-07
3420.0,2.015e-05
3425.0,4.864e-07
3430.0,2.613e-07
3435.0,1.64e-05
3440.0,2.336e-07
3445.0,6.197e-06
3450.0,1.86e-06
3455.0,4.202e-07
3460.0,2.494e-05
3465.0,4.576e-07
3470.0,2.346e-05
3475.0,2.985e-06
3480.0,3.194e-06
3485.0,1.902e-05
3490.0,1.694e-06
3495.0,1.967e-05
3500.0,1.852e-05
3505.0,1.574e-05
3510.0,1.774e-05
3515.0,1.6e-05
3520.0,2.917e-05
3525.0,2.761e-05
3530.0,1.357e-05
3535.0,1.687e-06
3540.0,1.266e-06
3545.0,1.273e-06
3550.0,1.179e-05
3555.0,2.454e-06
3560.0,1.942e-05
3565.0,9.092e-06
3570.0,2.34e-06
3575.0,1.223e-06
3580.0,9.195e-06
3585.0,2.321e-06
3590.0,6.414e-06
3595.0,1.837e-05
3600.0,2.642e-05
3605.0,1.021e-05
3610.0,7.408e-06
3615.0,1.995e-05
3620.0,6.909e-05
3625.0,1.436e-05
3630.0,2.342e-05
3635.0,2.859e-05
3640.0,8.337e-05
3645.0,1.979e-05
3650.0,2.34e-05
3655.0,5.157e-05
3660.0,6.422e-05
3665.0,1.48e-05
3670.0,6.691e-06
3675.0,2.514e-07
3680.0,4.182e-06
3685.0,1.056e-05
3690.0,9.486e-06
3695.0,3.596e-05
3700.0,8.593e-05
3705.0,7.848e-05
3710.0,1.779e-05
3715.0,2.975e-05
3720.0,5.815e-05
3725.0,6.977e-05
3730.0,2.759e-05
3735.0,1.363e-05
3740.0,2.637e-05
3745.0,6.502e-05
3750.0,3.866e-05
3755.0,2.642e-05
3760.0,1.533e-05
3765.0,1.779e-05
3770.0,2.688e-05
3775.0,2.956e-05
3780.0,4.904e-05
3785.0,2.779e-05
3790.0,1.181e-05
3795.0,3.738e-05
3800.0,6.838e-05
3805.0,4.895e-05
3810.0,2.091e-05
3815.0,1.637e-05
3820.0,6.709e-05
3825.0,6.682e-05
3830.0,6.959e-05
3835.0,1.252e-05
3840.0,3.842e-05
3845.0,2.495e-05
3850.0,2.522e-05
3855.0,1.955e-05
3860.0,5.421e-06
3865.0,5.613e-06
3870.0,1.294e-06
3875.0,3.941e-07
3880.0,2.502e-07
3885.0,3.782e-07
3890.0,4.736e-07
3895.0,1.721e-06
3900.0,7.114e-06
3905.0,5.799e-06
3910.0,9.308e-07
3915.0,7.067e-07
3920.0,7.591e-07
3925.0,7.018e-07
3930.0,1.033e-06
3935.0,2.135e-06
3940.0,2.687e-06
3945.0,3.931e-06
3950.0,5.879e-06
3955.0,7.283e-06
3960.0,8.768e-06
3965.0,1.016e-05
3970.0,8.763e-06
3975.0,5.939e-06
3980.0,5.064e-06
3985.0,5.908e-06
3990.0,5.088e-06
3995.0,3.756e-06
4000.0,2.778e-06
