interpolation:linear
wavelength,value
280.0,2.267e-23
280.5,7.953999999999999e-22
281.0,4.351e-21
281.5,1.472e-19
282.0,1.215e-18
282.5,4.719e-18
283.0,2.115e-17
283.5,3.946e-17
284.0,8.967e-16
284.5,2.461e-15
285.0,5.851e-16
285.5,3.367e-15
286.0,1.406e-14
286.5,6.763e-14
287.0,2.013e-13
287.5,8.111e-13
288.0,5.213e-11
288.5,4.593e-11
289.0,8.418e-11
289.5,2.078e-10
290.0,5.207e-10
290.5,9.948e-10
291.0,2.016e-09
291.5,5.503e-09
292.0,1.099e-08
292.5,1.428e-08
293.0,2.823e-08
293.5,6.303e-08
294.0,9.285e-08
294.5,1.847e-08
295.0,3.069e-08
295.5,5.132e-08
296.0,8.517e-08
296.5,1.036e-07
297.0,1.256e-07
297.5,2.878e-07
298.0,3.984e-07
298.5,3.636e-07
299.0,7.301e-07
299.5,1.033e-06
300.0,1.04e-06
300.5,1.379e-06
301.0,2.167e-06
301.5,3.048e-06
302.0,2.448e-06
302.5,2.151e-06
303.0,4.036e-06
303.5,5.2e-06
304.0,4.907e-06
304.5,7.503e-06
305.0,1.213e-05
305.5,1.471e-05
306.0,1.461e-05
306.5,1.907e-05
307.0,3.186e-05
307.5,4.846e-05
308.0,5.243e-05
308.5,6.675e-05
309.0,6.547e-05
309.5,6.648e-05
310.0,6.519e-05
310.5,0.0001049
311.0,0.0001313
311.5,0.0001269
312.0,0.0001302
312.5,0.000164
313.0,0.0001849
313.5,0.0001731
314.0,0.0002432
314.5,0.0002595
315.0,0.0003529
315.5,0.0002694
316.0,0.0002748
316.5,0.0004541
317.0,0.0005626
317.5,0.0005624
318.0,0.0004838
318.5,0.0007302
319.0,0.00096
319.5,0.0006648
320.0,0.0007844
320.5,0.001206
321.0,0.001305
321.5,0.001277
322.0,0.001103
322.5,0.0009702
323.0,0.001107
323.5,0.002791
324.0,0.003393
324.5,0.003102
325.0,0.001429
325.5,0.002061
326.0,0.004824
326.5,0.005501
327.0,0.005227
327.5,0.004749
328.0,0.003537
328.5,0.004609
329.0,0.006583
329.5,0.007965
330.0,0.007632
330.5,0.005304
331.0,0.005174
331.5,0.00578
332.0,0.007376
332.5,0.007879
333.0,0.007518
333.5,0.005989
334.0,0.006005
334.5,0.008013
335.0,0.008169
335.5,0.01023
336.0,0.007077
336.5,0.007429
337.0,0.005741
337.5,0.006984
338.0,0.007665
338.5,0.00963
339.0,0.009613
339.5,0.009198
340.0,0.009962
340.5,0.009084
341.0,0.009549
341.5,0.008902
342.0,0.01068
342.5,0.01004
343.0,0.01094
343.5,0.01024
344.0,0.007016
344.5,0.007557
345.0,0.01018
345.5,0.01048
346.0,0.00895
346.5,0.01017
347.0,0.01083
347.5,0.008737
348.0,0.01006
348.5,0.01012
349.0,0.00941
349.5,0.009309
350.0,0.01153
350.5,0.01216
351.0,0.01082
351.5,0.01039
352.0,0.01125
352.5,0.008832
353.0,0.01117
353.5,0.01198
354.0,0.01246
354.5,0.01264
355.0,0.01258
355.5,0.01138
356.0,0.01193
356.5,0.01019
357.0,0.00842
357.5,0.01032
358.0,0.008186
358.5,0.007001
359.0,0.009785
359.5,0.01243
360.0,0.0132
360.5,0.01057
361.0,0.009648
361.5,0.01112
362.0,0.009628
362.5,0.01333
363.0,0.01198
363.5,0.01104
364.0,0.0135
364.5,0.01154
365.0,0.01176
365.5,0.01476
366.0,0.01565
366.5,0.01472
367.0,0.01434
367.5,0.01488
368.0,0.01303
368.5,0.01314
369.0,0.0142
369.5,0.01515
370.0,0.01615
370.5,0.01254
371.0,0.01341
371.5,0.01678
372.0,0.01114
372.5,0.01336
373.0,0.0136
373.5,0.008849
374.0,0.01286
374.5,0.01065
375.0,0.01036
375.5,0.01547
376.0,0.01283
376.5,0.0133
377.0,0.01409
377.5,0.01649
378.0,0.01788
378.5,0.0169
379.0,0.01395
379.5,0.01275
380.0,0.01326
380.5,0.01607
381.0,0.0161
381.5,0.01277
382.0,0.01134
382.5,0.009674
383.0,0.008959
383.5,0.008632
384.0,0.009525
384.5,0.01401
385.0,0.0139
385.5,0.01295
386.0,0.0111
386.5,0.01458
387.0,0.01212
387.5,0.01361
388.0,0.01257
388.5,0.01243
389.0,0.01342
389.5,0.01626
390.0,0.01633
390.5,0.01503
391.0,0.0177
391.5,0.01806
392.0,0.01521
392.5,0.01362
393.0,0.007582
393.5,0.005513
394.0,0.01122
394.5,0.01427
395.0,0.01742
395.5,0.0177
396.0,0.01535
396.5,0.008977
397.0,0.006739
397.5,0.01371
398.0,0.01921
398.5,0.01986
399.0,0.02151
399.5,0.02144
400.0,0.02227
401.0,0.022
402.0,0.02322
403.0,0.02207
404.0,0.02174
405.0,0.02174
406.0,0.02139
407.0,0.02104
408.0,0.02186
409.0,0.02339
410.0,0.02045
411.0,0.02215
412.0,0.02381
413.0,0.02324
414.0,0.02353
415.0,0.02358
416.0,0.02399
417.0,0.02339
418.0,0.02296
419.0,0.02328
420.0,0.02318
421.0,0.02425
422.0,0.02303
423.0,0.02247
424.0,0.02374
425.0,0.02369
426.0,0.02307
427.0,0.02266
428.0,0.02209
429.0,0.02094
430.0,0.01833
431.0,0.01816
432.0,0.02341
433.0,0.02353
434.0,0.02185
435.0,0.02283
436.0,0.02573
437.0,0.02537
438.0,0.02306
439.0,0.0238
440.0,0.02451
441.0,0.02534
442.0,0.02713
443.0,0.02642
444.0,0.02701
445.0,0.02648
446.0,0.02532
447.0,0.02739
448.0,0.02779
449.0,0.02784
450.0,0.02856
451.0,0.0296
452.0,0.02853
453.0,0.02684
454.0,0.02803
455.0,0.02814
456.0,0.02875
457.0,0.02913
458.0,0.02802
459.0,0.02774
460.0,0.0277
461.0,0.02826
462.0,0.02847
463.0,0.02833
464.0,0.02796
465.0,0.02769
466.0,0.02799
467.0,0.02745
468.0,0.02769
469.0,0.02775
470.0,0.02681
471.0,0.02677
472.0,0.02822
473.0,0.02786
474.0,0.02786
475.0,0.02801
476.0,0.02703
477.0,0.02694
478.0,0.02752
479.0,0.02716
480.0,0.02702
481.0,0.02738
482.0,0.02745
483.0,0.02713
484.0,0.02665
485.0,0.02549
486.0,0.02236
487.0,0.02348
488.0,0.02574
489.0,0.02575
490.0,0.02701
491.0,0.02647
492.0,0.02496
493.0,0.02576
494.0,0.026
495.0,0.0262
496.0,0.02629
497.0,0.02657
498.0,0.02515
499.0,0.02527
500.0,0.02434
501.0,0.02369
502.0,0.02313
503.0,0.02387
504.0,0.02311
505.0,0.02386
506.0,0.02462
507.0,0.02345
508.0,0.02278
509.0,0.0235
510.0,0.02343
511.0,0.02407
512.0,0.02431
513.0,0.02295
514.0,0.02272
515.0,0.02242
516.0,0.0223
517.0,0.01976
518.0,0.02073
519.0,0.02169
520.0,0.0224
521.0,0.02252
522.0,0.02241
523.0,0.02193
524.0,0.02254
525.0,0.02262
526.0,0.02146
527.0,0.02005
528.0,0.02104
529.0,0.02203
530.0,0.02158
531.0,0.02177
532.0,0.02094
533.0,0.02028
534.0,0.02085
535.0,0.02132
536.0,0.02152
537.0,0.02068
538.0,0.02102
539.0,0.02079
540.0,0.01986
541.0,0.01987
542.0,0.0204
543.0,0.02012
544.0,0.02036
545.0,0.02023
546.0,0.02025
547.0,0.0202
548.0,0.01994
549.0,0.01996
550.0,0.02015
551.0,0.01986
552.0,0.01996
553.0,0.01955
554.0,0.01995
555.0,0.01991
556.0,0.01957
557.0,0.01887
558.0,0.0186
559.0,0.01812
560.0,0.01821
561.0,0.01832
562.0,0.01805
563.0,0.01841
564.0,0.0178
565.0,0.01755
566.0,0.01721
567.0,0.01743
568.0,0.01712
569.0,0.01663
570.0,0.01653
571.0,0.01634
572.0,0.01663
573.0,0.01675
574.0,0.01664
575.0,0.01629
576.0,0.01613
577.0,0.01632
578.0,0.01613
579.0,0.01628
580.0,0.01671
581.0,0.01691
582.0,0.01732
583.0,0.01744
584.0,0.01764
585.0,0.01723
586.0,0.01689
587.0,0.01722
588.0,0.01677
589.0,0.01444
590.0,0.01504
591.0,0.01602
592.0,0.01567
593.0,0.01604
594.0,0.01573
595.0,0.0153
596.0,0.01606
597.0,0.01564
598.0,0.01553
599.0,0.01563
600.0,0.01556
601.0,0.01541
602.0,0.0153
603.0,0.01559
604.0,0.01589
605.0,0.01587
606.0,0.01585
607.0,0.01608
608.0,0.01598
609.0,0.0161
610.0,0.01607
611.0,0.01624
612.0,0.01628
613.0,0.01616
614.0,0.01602
615.0,0.01644
616.0,0.01596
617.0,0.01598
618.0,0.01665
619.0,0.01652
620.0,0.01665
621.0,0.01669
622.0,0.01651
623.0,0.01626
624.0,0.01597
625.0,0.01593
626.0,0.01615
627.0,0.01624
628.0,0.01421
629.0,0.0154
630.0,0.01505
631.0,0.01574
632.0,0.01575
633.0,0.01637
634.0,0.0164
635.0,0.0168
636.0,0.01667
637.0,0.01708
638.0,0.01737
639.0,0.01727
640.0,0.01724
641.0,0.01732
642.0,0.01737
643.0,0.01769
644.0,0.01772
645.0,0.01767
646.0,0.01728
647.0,0.01661
648.0,0.01653
649.0,0.01624
650.0,0.0168
651.0,0.01763
652.0,0.01642
653.0,0.01759
654.0,0.01766
655.0,0.01639
656.0,0.01468
657.0,0.01537
658.0,0.01729
659.0,0.01779
660.0,0.01784
661.0,0.0181
662.0,0.01829
663.0,0.01801
664.0,0.01825
665.0,0.01828
666.0,0.01838
667.0,0.01843
668.0,0.01855
669.0,0.01888
670.0,0.01886
671.0,0.01891
672.0,0.01881
673.0,0.01915
674.0,0.01912
675.0,0.019
676.0,0.01917
677.0,0.01903
678.0,0.01913
679.0,0.01886
680.0,0.01903
681.0,0.01889
682.0,0.01887
683.0,0.01881
684.0,0.01867
685.0,0.01892
686.0,0.01869
687.0,0.009493
688.0,0.01112
689.0,0.01116
690.0,0.01179
691.0,0.01272
692.0,0.0138
693.0,0.01382
694.0,0.01407
695.0,0.0155
696.0,0.01561
697.0,0.01849
698.0,0.01746
699.0,0.01605
700.0,0.01585
701.0,0.01521
702.0,0.01549
703.0,0.01597
704.0,0.0167
705.0,0.01699
706.0,0.01715
707.0,0.01707
708.0,0.01795
709.0,0.0182
710.0,0.01751
711.0,0.01774
712.0,0.01813
713.0,0.01735
714.0,0.01761
715.0,0.01663
716.0,0.01617
717.0,0.0117
718.0,0.01119
719.0,0.01076
720.0,0.0106
721.0,0.01264
722.0,0.01442
723.0,0.01365
724.0,0.01229
725.0,0.0116
726.0,0.01128
727.0,0.01323
728.0,0.01077
729.0,0.01185
730.0,0.0119
731.0,0.01149
732.0,0.01287
733.0,0.01436
734.0,0.01523
735.0,0.01478
736.0,0.0142
737.0,0.01458
738.0,0.01606
739.0,0.01581
740.0,0.01672
741.0,0.01671
742.0,0.01715
743.0,0.0175
744.0,0.01744
745.0,0.01767
746.0,0.01774
747.0,0.01783
748.0,0.01781
749.0,0.01762
750.0,0.01762
751.0,0.01743
752.0,0.01754
753.0,0.01765
754.0,0.01766
755.0,0.01752
756.0,0.01756
757.0,0.01755
758.0,0.01726
759.0,0.01543
760.0,0.001863
761.0,0.0009948
762.0,0.005468
763.0,0.002785
764.0,0.004122
765.0,0.00542
766.0,0.00659
767.0,0.008401
768.0,0.01111
769.0,0.01233
770.0,0.01462
771.0,0.01593
772.0,0.01638
773.0,0.01659
774.0,0.01659
775.0,0.01652
776.0,0.01675
777.0,0.01652
778.0,0.01638
779.0,0.01639
780.0,0.0163
781.0,0.01632
782.0,0.01644
783.0,0.01617
784.0,0.01629
785.0,0.01615
786.0,0.01613
787.0,0.01514
788.0,0.0151
789.0,0.01439
790.0,0.01305
791.0,0.01388
792.0,0.01398
793.0,0.01366
794.0,0.01527
795.0,0.01489
796.0,0.01322
797.0,0.01433
798.0,0.01538
799.0,0.01461
800.0,0.01347
801.0,0.01294
802.0,0.0137
803.0,0.01293
804.0,0.01347
805.0,0.01383
806.0,0.01505
807.0,0.01408
808.0,0.01437
809.0,0.01332
810.0,0.01308
811.0,0.01143
812.0,0.01091
813.0,0.01038
814.0,0.00823
815.0,0.007991
816.0,0.009028
817.0,0.009091
818.0,0.009128
819.0,0.009125
820.0,0.0105
821.0,0.01098
822.0,0.01002
823.0,0.005392
824.0,0.009614
825.0,0.01245
826.0,0.009696
827.0,0.01117
828.0,0.008185
829.0,0.01088
830.0,0.01048
831.0,0.01033
832.0,0.01013
833.0,0.009985
834.0,0.009358
835.0,0.0118
836.0,0.0106
837.0,0.01168
838.0,0.01066
839.0,0.01257
840.0,0.01318
841.0,0.01258
842.0,0.0128
843.0,0.01335
844.0,0.01266
845.0,0.01365
846.0,0.01385
847.0,0.01376
848.0,0.01343
849.0,0.01291
850.0,0.01239
851.0,0.01258
852.0,0.01284
853.0,0.01262
854.0,0.01087
855.0,0.01195
856.0,0.01311
857.0,0.01352
858.0,0.01339
859.0,0.01363
860.0,0.01372
861.0,0.01365
862.0,0.01387
863.0,0.01417
864.0,0.0135
865.0,0.01341
866.0,0.01205
867.0,0.01258
868.0,0.01369
869.0,0.01342
870.0,0.01381
871.0,0.01359
872.0,0.01357
873.0,0.01354
874.0,0.01337
875.0,0.01305
876.0,0.01318
877.0,0.01328
878.0,0.01342
879.0,0.0132
880.0,0.01285
881.0,0.01258
882.0,0.01266
883.0,0.01282
884.0,0.01269
885.0,0.01258
886.0,0.01132
887.0,0.01206
888.0,0.01191
889.0,0.01272
890.0,0.01163
891.0,0.01252
892.0,0.01055
893.0,0.009916
894.0,0.008181
895.0,0.006757
896.0,0.006922
897.0,0.006499
898.0,0.0068
899.0,0.004297
900.0,0.005913
901.0,0.004486
902.0,0.004484
903.0,0.005533
904.0,0.008005
905.0,0.007127
906.0,0.006878
907.0,0.00525
908.0,0.005838
909.0,0.005393
910.0,0.003901
911.0,0.004582
912.0,0.007429
913.0,0.00405
914.0,0.005825
915.0,0.003909
916.0,0.004599
917.0,0.004653
918.0,0.004167
919.0,0.005104
920.0,0.006256
921.0,0.005926
922.0,0.00478
923.0,0.005923
924.0,0.004525
925.0,0.004438
926.0,0.004336
927.0,0.005013
928.0,0.00294
929.0,0.002569
930.0,0.001971
931.0,0.001858
932.0,0.001328
933.0,0.001072
934.0,0.0005821
935.0,0.001091
936.0,0.0006757
937.0,0.0006817
938.0,0.0008357
939.0,0.001745
940.0,0.002105
941.0,0.001566
942.0,0.001808
943.0,0.001179
944.0,0.00124
945.0,0.001589
946.0,0.0008009
947.0,0.001584
948.0,0.001161
949.0,0.002116
950.0,0.0005799
951.0,0.002078
952.0,0.001142
953.0,0.001436
954.0,0.001752
955.0,0.001645
956.0,0.001407
957.0,0.001134
958.0,0.002048
959.0,0.001591
960.0,0.001833
961.0,0.002102
962.0,0.001951
963.0,0.002479
964.0,0.002203
965.0,0.002316
966.0,0.002638
967.0,0.002976
968.0,0.006221
969.0,0.004027
970.0,0.005371
971.0,0.005128
972.0,0.005697
973.0,0.003568
974.0,0.003256
975.0,0.004333
976.0,0.004325
977.0,0.005602
978.0,0.003992
979.0,0.004874
980.0,0.004825
981.0,0.005474
982.0,0.004692
983.0,0.004486
984.0,0.006781
985.0,0.004524
986.0,0.008787
987.0,0.006501
988.0,0.006977
989.0,0.009086
990.0,0.006356
991.0,0.008936
992.0,0.009269
993.0,0.00741
994.0,0.009415
995.0,0.009658
996.0,0.009406
997.0,0.009416
998.0,0.009287
999.0,0.009338
1000.0,0.009259
1001.0,0.009464
1002.0,0.007908
1003.0,0.009331
1004.0,0.008523
1005.0,0.008587
1006.0,0.008901
1007.0,0.009106
1008.0,0.008804
1009.0,0.008404
1010.0,0.008362
1011.0,0.008908
1012.0,0.008721
1013.0,0.009095
1014.0,0.00904
1015.0,0.009008
1016.0,0.008856
1017.0,0.008764
1018.0,0.008933
1019.0,0.008072
1020.0,0.008858
1021.0,0.008904
1022.0,0.008675
1023.0,0.008679
1024.0,0.007903
1025.0,0.00886
1026.0,0.008551
1027.0,0.008808
1028.0,0.008575
1029.0,0.008381
1030.0,0.008589
1031.0,0.00864
1032.0,0.008502
1033.0,0.00845
1034.0,0.008406
1035.0,0.008444
1036.0,0.008351
1037.0,0.008279
1038.0,0.008272
1039.0,0.0082
1040.0,0.008149
1041.0,0.008097
1042.0,0.008034
1043.0,0.007961
1044.0,0.007931
1045.0,0.007771
1046.0,0.00763
1047.0,0.007634
1048.0,0.007607
1049.0,0.007513
1050.0,0.007403
1051.0,0.007307
1052.0,0.007196
1053.0,0.00704
1054.0,0.006952
1055.0,0.006835
1056.0,0.006678
1057.0,0.006566
1058.0,0.006307
1059.0,0.00619
1060.0,0.006134
1061.0,0.006057
1062.0,0.006062
1063.0,0.00584
1064.0,0.005942
1065.0,0.005658
1066.0,0.005713
1067.0,0.005779
1068.0,0.005512
1069.0,0.005452
1070.0,0.005721
1071.0,0.006053
1072.0,0.005719
1073.0,0.005781
1074.0,0.006291
1075.0,0.004863
1076.0,0.006389
1077.0,0.005548
1078.0,0.004993
1079.0,0.006529
1080.0,0.005414
1081.0,0.0046
1082.0,0.005765
1083.0,0.006009
1084.0,0.004684
1085.0,0.005597
1086.0,0.004446
1087.0,0.004533
1088.0,0.005884
1089.0,0.004504
1090.0,0.004374
1091.0,0.005325
1092.0,0.005647
1093.0,0.0032
1094.0,0.004733
1095.0,0.00294
1096.0,0.002609
1097.0,0.005725
1098.0,0.002567
1099.0,0.002474
1100.0,0.002061
1101.0,0.002214
1102.0,0.001936
1103.0,0.001644
1104.0,0.001891
1105.0,0.002102
1106.0,0.001106
1107.0,0.001953
1108.0,0.001196
1109.0,0.001319
1110.0,0.001512
1111.0,0.0008597
1112.0,0.001471
1113.0,0.0006683
1114.0,0.0007424
1115.0,0.0006065
1116.0,0.0004698
1117.0,0.000169
1118.0,0.0005089
1119.0,0.0002491
1120.0,0.0003124
1121.0,0.0004148
1122.0,0.0001718
1123.0,0.0002796
1124.0,0.0002352
1125.0,0.0003064
1126.0,0.0001042
1127.0,0.0003435
1128.0,0.0002025
1129.0,0.0002145
1130.0,0.0001398
1131.0,0.0006485
1132.0,0.000506
1133.0,0.0003166
1134.0,7.892e-05
1135.0,2.957e-05
1136.0,0.0002605
1137.0,0.0006236
1138.0,0.0004372
1139.0,0.0006568
1140.0,0.0005441
1141.0,0.0004115
1142.0,0.0004731
1143.0,0.0006719
1144.0,0.0002313
1145.0,0.0002936
1146.0,0.0003156
1147.0,0.0001086
1148.0,0.0005721
1149.0,0.0004535
1150.0,0.0002441
1151.0,0.0004158
1152.0,0.0005123
1153.0,0.0005002
1154.0,0.0002764
1155.0,0.0006535
1156.0,0.00059
1157.0,0.0006833
1158.0,0.0006593
1159.0,0.0007319
1160.0,0.0006408
1161.0,0.001047
1162.0,0.001431
1163.0,0.001626
1164.0,0.001739
1165.0,0.001003
1166.0,0.001688
1167.0,0.001642
1168.0,0.001432
1169.0,0.001612
1170.0,0.002139
1171.0,0.001871
1172.0,0.00322
1173.0,0.001897
1174.0,0.00106
1175.0,0.00242
1176.0,0.004248
1177.0,0.002699
1178.0,0.001588
1179.0,0.003917
1180.0,0.003738
1181.0,0.002144
1182.0,0.001004
1183.0,0.002234
1184.0,0.003313
1185.0,0.002393
1186.0,0.002751
1187.0,0.002057
1188.0,0.001128
1189.0,0.002301
1190.0,0.00312
1191.0,0.001984
1192.0,0.003217
1193.0,0.003967
1194.0,0.003067
1195.0,0.00211
1196.0,0.001762
1197.0,0.002959
1198.0,0.002937
1199.0,0.001443
1200.0,0.002443
1201.0,0.001922
1202.0,0.002722
1203.0,0.001872
1204.0,0.003544
1205.0,0.003726
1206.0,0.004059
1207.0,0.002324
1208.0,0.002588
1209.0,0.002924
1210.0,0.003881
1211.0,0.003156
1212.0,0.001781
1213.0,0.003282
1214.0,0.002078
1215.0,0.001851
1216.0,0.003706
1217.0,0.003337
1218.0,0.003606
1219.0,0.003393
1220.0,0.003643
1221.0,0.003942
1222.0,0.003699
1223.0,0.003513
1224.0,0.003108
1225.0,0.003502
1226.0,0.004117
1227.0,0.002727
1228.0,0.004707
1229.0,0.004004
1230.0,0.003758
1231.0,0.005061
1232.0,0.00505
1233.0,0.003117
1234.0,0.005396
1235.0,0.005004
1236.0,0.005327
1237.0,0.004479
1238.0,0.005311
1239.0,0.005273
1240.0,0.005362
1241.0,0.005034
1242.0,0.005231
1243.0,0.005249
1244.0,0.00507
1245.0,0.005224
1246.0,0.005224
1247.0,0.005004
1248.0,0.004843
1249.0,0.005002
1250.0,0.004786
1251.0,0.004391
1252.0,0.004854
1253.0,0.004033
1254.0,0.003649
1255.0,0.004692
1256.0,0.00329
1257.0,0.003047
1258.0,0.003963
1259.0,0.002377
1260.0,0.002543
1261.0,0.001429
1262.0,0.0011
1263.0,0.001105
1264.0,0.0007118
1265.0,0.001086
1266.0,0.0008308
1267.0,0.000986
1268.0,0.000743
1269.0,0.0003497
1270.0,0.0009076
1271.0,0.00151
1272.0,0.001553
1273.0,0.001452
1274.0,0.001607
1275.0,0.00174
1276.0,0.002015
1277.0,0.002339
1278.0,0.002898
1279.0,0.002904
1280.0,0.003135
1281.0,0.003404
1282.0,0.003638
1283.0,0.003788
1284.0,0.004096
1285.0,0.004018
1286.0,0.004338
1287.0,0.004333
1288.0,0.004117
1289.0,0.002584
1290.0,0.00421
1291.0,0.004496
1292.0,0.002141
1293.0,0.003958
1294.0,0.003631
1295.0,0.00258
1296.0,0.001992
1297.0,0.001702
1298.0,0.002497
1299.0,0.003634
1300.0,0.001394
1301.0,0.001297
1302.0,0.002447
1303.0,0.002453
1304.0,0.0007532
1305.0,0.002129
1306.0,0.001654
1307.0,0.001141
1308.0,0.001629
1309.0,0.001516
1310.0,0.001349
1311.0,0.00208
1312.0,0.001267
1313.0,0.001066
1314.0,0.0005619
1315.0,0.0005526
1316.0,0.001586
1317.0,0.002304
1318.0,0.00213
1319.0,0.0008882
1320.0,0.0005687
1321.0,0.0009463
1322.0,0.0005654
1323.0,0.0003457
1324.0,0.0008189
1325.0,0.0008265
1326.0,0.0006759
1327.0,0.0005465
1328.0,0.0003257
1329.0,0.0002236
1330.0,0.000292
1331.0,0.0001753
1332.0,0.0001779
1333.0,0.000248
1334.0,0.0002202
1335.0,0.000293
1336.0,0.0002287
1337.0,0.0002033
1338.0,0.0002157
1339.0,0.0002151
1340.0,0.0002084
1341.0,0.0002012
1342.0,0.0002109
1343.0,0.0001419
1344.0,8.473e-05
1345.0,0.0001219
1346.0,6.012e-05
1347.0,6.091e-05
1348.0,3.927e-06
1349.0,1.409e-05
1350.0,1.461e-05
1351.0,3.531e-06
1352.0,9.499e-07
1353.0,4.834e-08
1354.0,1.662e-07
1355.0,1.338e-09
1356.0,2.342e-08
1357.0,3.559e-08
1358.0,1.571e-09
1359.0,1.98e-10
1360.0,7.156e-10
1361.0,8.005e-13
1362.0,2.19e-15
1363.0,9.624e-10
1364.0,3.974e-10
1365.0,7.648e-16
1366.0,4.172e-09
1367.0,1.703e-09
1368.0,5.907e-18
1369.0,1.465e-10
1370.0,7.215e-11
1371.0,4.09e-12
1372.0,9.24e-10
1373.0,1.862e-08
1374.0,8.635e-08
1375.0,1.566e-07
1376.0,1.405e-07
1377.0,6.418e-08
1378.0,6.275e-07
1379.0,2.682e-08
1380.0,3.854e-08
1381.0,1.004e-09
1382.0,8.105e-10
1383.0,1.212e-11
1384.0,1.589e-10
1385.0,7.599e-10
1386.0,7.149e-10
1387.0,8.646e-08
1388.0,1.701e-09
1389.0,2.92e-07
1390.0,2.506e-07
1391.0,1.667e-07
1392.0,1.081e-08
1393.0,5.725e-08
1394.0,2.951e-08
1395.0,2.163e-10
1396.0,1.045e-12
1397.0,2.255e-08
1398.0,6.667e-07
1399.0,4.218e-07
1400.0,4.471e-13
1401.0,1.855e-12
1402.0,1.169e-06
1403.0,1.464e-06
1404.0,4.447e-07
1405.0,1.025e-10
1406.0,1.15e-06
1407.0,1.013e-07
1408.0,9.355e-07
1409.0,3.119e-07
1410.0,2.497e-07
1411.0,1.259e-06
1412.0,1.699e-06
1413.0,1.769e-05
1414.0,1.95e-07
1415.0,9.313e-08
1416.0,2.924e-05
1417.0,8.633e-06
1418.0,9.776e-06
1419.0,1.505e-06
1420.0,5.942e-06
1421.0,6.41e-06
1422.0,3.759e-05
1423.0,7.21e-06
1424.0,1.353e-05
1425.0,1.977e-05
1426.0,2.263e-05
1427.0,4.209e-05
1428.0,2.946e-06
1429.0,3.1e-05
1430.0,5.35e-05
1431.0,5.882e-05
1432.0,2.29e-06
1433.0,3.69e-05
1434.0,1.857e-05
1435.0,1.799e-05
1436.0,3.544e-05
1437.0,2.71e-05
1438.0,1.119e-05
1439.0,4.817e-05
1440.0,3.597e-05
1441.0,2.69e-05
1442.0,2.98e-05
1443.0,3.802e-05
1444.0,5.293e-05
1445.0,4.067e-05
1446.0,1.804e-05
1447.0,2.843e-05
1448.0,0.0001007
1449.0,8.656e-05
1450.0,2.096e-05
1451.0,8.251e-06
1452.0,5.096e-05
1453.0,6.716e-05
1454.0,0.0001181
1455.0,5.439e-05
1456.0,7.25e-05
1457.0,9.88e-05
1458.0,0.0001182
1459.0,0.000139
1460.0,7.124e-05
1461.0,7.327e-05
1462.0,0.0001088
1463.0,3.413e-05
1464.0,0.0001299
1465.0,7.774e-05
1466.0,5.147e-05
1467.0,2.634e-05
1468.0,6.092e-05
1469.0,7.558e-05
1470.0,3.631e-05
1471.0,1.288e-05
1472.0,3.452e-05
1473.0,5.367e-05
1474.0,7.974e-05
1475.0,0.000153
1476.0,5.339e-05
1477.0,5.332e-05
1478.0,4.981e-05
1479.0,9.71e-05
1480.0,4.567e-05
1481.0,9.19e-05
1482.0,4.466e-05
1483.0,0.0001196
1484.0,0.0001132
1485.0,9.885e-05
1486.0,9.66e-05
1487.0,4.309e-05
1488.0,7.752e-05
1489.0,0.0001544
1490.0,0.0001592
1491.0,0.0001914
1492.0,0.0001342
1493.0,0.0001585
1494.0,0.0002343
1495.0,0.0001861
1496.0,0.0001594
1497.0,0.0004717
1498.0,0.0003512
1499.0,0.0002745
1500.0,0.0008622
1501.0,0.0007164
1502.0,0.0008641
1503.0,0.0003732
1504.0,0.0001262
1505.0,0.0002779
1506.0,0.001075
1507.0,0.0009566
1508.0,0.00121
1509.0,0.0005177
1510.0,0.001309
1511.0,0.0008245
1512.0,0.001401
1513.0,0.0005442
1514.0,0.0005099
1515.0,0.001586
1516.0,0.001438
1517.0,0.0008542
1518.0,0.00119
1519.0,0.0007582
1520.0,0.001133
1521.0,0.002716
1522.0,0.001552
1523.0,0.002784
1524.0,0.001915
1525.0,0.00122
1526.0,0.001545
1527.0,0.001659
1528.0,0.002442
1529.0,0.001985
1530.0,0.001682
1531.0,0.001832
1532.0,0.002887
1533.0,0.003106
1534.0,0.003354
1535.0,0.002878
1536.0,0.002922
1537.0,0.0007619
1538.0,0.003143
1539.0,0.003103
1540.0,0.003126
1541.0,0.00305
1542.0,0.002947
1543.0,0.003195
1544.0,0.003079
1545.0,0.003263
1546.0,0.002868
1547.0,0.003065
1548.0,0.003083
1549.0,0.003285
1550.0,0.003178
1551.0,0.003034
1552.0,0.003226
1553.0,0.003184
1554.0,0.003039
1555.0,0.00318
1556.0,0.003087
1557.0,0.003171
1558.0,0.003185
1559.0,0.003157
1560.0,0.003084
1561.0,0.00313
1562.0,0.003056
1563.0,0.002958
1564.0,0.002928
1565.0,0.003195
1566.0,0.002992
1567.0,0.003025
1568.0,0.002953
1569.0,0.003133
1570.0,0.003103
1571.0,0.003091
1572.0,0.003087
1573.0,0.002975
1574.0,0.002779
1575.0,0.002718
1576.0,0.002419
1577.0,0.002333
1578.0,0.002336
1579.0,0.002159
1580.0,0.002257
1581.0,0.002235
1582.0,0.002246
1583.0,0.002188
1584.0,0.002624
1585.0,0.002739
1586.0,0.002715
1587.0,0.002589
1588.0,0.002867
1589.0,0.00282
1590.0,0.00275
1591.0,0.002903
1592.0,0.002836
1593.0,0.002983
1594.0,0.002949
1595.0,0.002943
1596.0,0.002784
1597.0,0.00265
1598.0,0.002961
1599.0,0.002982
1600.0,0.003042
1601.0,0.002867
1602.0,0.002776
1603.0,0.003022
1604.0,0.002972
1605.0,0.003014
1606.0,0.00296
1607.0,0.003001
1608.0,0.002727
1609.0,0.002873
1610.0,0.002775
1611.0,0.002844
1612.0,0.002943
1613.0,0.00279
1614.0,0.002899
1615.0,0.002839
1616.0,0.002811
1617.0,0.00266
1618.0,0.002901
1619.0,0.002636
1620.0,0.002815
1621.0,0.002775
1622.0,0.002797
1623.0,0.002867
1624.0,0.002714
1625.0,0.002653
1626.0,0.002671
1627.0,0.002761
1628.0,0.002635
1629.0,0.002724
1630.0,0.002643
1631.0,0.002383
1632.0,0.002569
1633.0,0.001939
1634.0,0.00258
1635.0,0.001915
1636.0,0.002297
1637.0,0.002451
1638.0,0.001421
1639.0,0.002392
1640.0,0.001345
1641.0,0.002204
1642.0,0.002495
1643.0,0.001032
1644.0,0.002648
1645.0,0.001599
1646.0,0.0009975
1647.0,0.002608
1648.0,0.00101
1649.0,0.002157
1650.0,0.002279
1651.0,0.0008021
1652.0,0.002006
1653.0,0.002485
1654.0,0.001095
1655.0,0.002283
1656.0,0.001695
1657.0,0.001952
1658.0,0.002509
1659.0,0.002291
1660.0,0.002266
1661.0,0.002438
1662.0,0.001837
1663.0,0.002442
1664.0,0.0024
1665.0,0.001039
1666.0,0.0001384
1667.0,0.001074
1668.0,0.002052
1669.0,0.002162
1670.0,0.002427
1671.0,0.002086
1672.0,0.002317
1673.0,0.002397
1674.0,0.001837
1675.0,0.00198
1676.0,0.002304
1677.0,0.001887
1678.0,0.001453
1679.0,0.002358
1680.0,0.001908
1681.0,0.001458
1682.0,0.002315
1683.0,0.002397
1684.0,0.0007569
1685.0,0.002338
1686.0,0.00234
1687.0,0.00147
1688.0,0.002107
1689.0,0.002191
1690.0,0.001965
1691.0,0.0008246
1692.0,0.001728
1693.0,0.002334
1694.0,0.00154
1695.0,0.002085
1696.0,0.002281
1697.0,0.0004974
1698.0,0.001946
1699.0,0.002032
1700.0,0.001631
1702.0,0.001936
1705.0,0.001484
1710.0,0.001281
1715.0,0.001593
1720.0,0.001665
1725.0,0.0007935
1730.0,0.001527
1735.0,0.001036
1740.0,0.001252
1745.0,0.001645
1750.0,0.0006023
1755.0,0.001027
1760.0,0.0004999
1765.0,0.0005618
1770.0,0.0003344
1775.0,0.000351
1780.0,0.0002065
1785.0,9.405e-05
1790.0,4.511e-05
1795.0,1.639e-05
1800.0,1.128e-05
1805.0,4.479e-06
1810.0,2.909e-06
1815.0,8.414e-07
1820.0,2.105e-07
1825.0,2.747e-07
1830.0,6.696e-10
1835.0,1.014e-09
1840.0,5.918e-12
1845.0,6.328e-10
1850.0,2.857e-10
1855.0,2.73e-11
1860.0,1.565e-09
1865.0,2.181e-09
1870.0,1.194e-14
1875.0,2.157e-14
1880.0,1.149e-08
1885.0,6.122e-09
1890.0,3.358e-08
1895.0,1.948e-08
1900.0,8.329e-11
1905.0,5.674e-11
1910.0,2.748e-09
1915.0,2.677e-09
1920.0,7.022e-08
1925.0,1.65e-07
1930.0,9.529e-08
1935.0,7.264e-07
1940.0,7.214e-07
1945.0,2.971e-06
1950.0,5.778e-06
1955.0,5.152e-06
1960.0,9.062e-06
1965.0,0.0001331
1970.0,0.0001584
1975.0,0.0001771
1980.0,4.62e-05
1985.0,7.609e-05
1990.0,0.0003784
1995.0,0.0002447
2000.0,0.0004225
2005.0,0.0002251
2010.0,0.0007867
2015.0,0.0001488
2020.0,0.0003008
2025.0,0.0005868
2030.0,0.0003508
2035.0,0.0007598
2040.0,0.0005294
2045.0,0.0006002
2050.0,0.0009428
2055.0,0.0005896
2060.0,0.0004989
2065.0,0.0007896
2070.0,0.0006545
2075.0,0.0008855
2080.0,0.0009412
2085.0,0.0009375
2090.0,0.000952
2095.0,0.0008493
2100.0,0.0005833
2105.0,0.0008612
2110.0,0.0006024
2115.0,0.0008666
2120.0,0.0005745
2125.0,0.0007527
2130.0,0.0009078
2135.0,0.0009612
2140.0,0.0009808
2145.0,0.0009711
2150.0,0.0005416
2155.0,0.0005173
2160.0,0.000588
2165.0,0.0004902
2170.0,0.0006626
2175.0,0.0004646
2180.0,0.0006184
2185.0,0.0003927
2190.0,0.0005621
2195.0,0.0005089
2200.0,0.0001076
2205.0,0.0003153
2210.0,0.0007331
2215.0,0.0004601
2220.0,0.0005534
2225.0,0.0004496
2230.0,0.0004581
2235.0,0.0003764
2240.0,0.0003604
2245.0,0.0002157
2250.0,0.0003514
2255.0,0.0001387
2260.0,0.0001224
2265.0,0.0002075
2270.0,8.564e-05
2275.0,7.522e-05
2280.0,0.0001958
2285.0,7.701e-05
2290.0,8.33e-05
2295.0,7.469e-05
2300.0,3.721e-05
2305.0,4.485e-05
2310.0,0.0002145
2315.0,4.671e-05
2320.0,1.855e-05
2325.0,0.0001155
2330.0,6.116e-05
2335.0,8.45e-05
2340.0,1.522e-05
2345.0,1.831e-05
2350.0,1.348e-05
2355.0,1.518e-05
2360.0,1.829e-05
2365.0,6.457e-05
2370.0,3.823e-06
2375.0,1.368e-05
2380.0,4.288e-05
2385.0,5.948e-06
2390.0,6.547e-06
2395.0,8.002e-06
2400.0,8.642e-06
2405.0,1.634e-05
2410.0,1.278e-05
2415.0,3.63e-06
2420.0,3.146e-06
2425.0,3.998e-06
2430.0,6.191e-06
2435.0,1.589e-06
2440.0,6.13e-06
2445.0,2.237e-06
2450.0,1.399e-06
2455.0,3.95e-06
2460.0,3.585e-06
2465.0,2.496e-06
2470.0,1.648e-06
2475.0,1.597e-06
2480.0,7.499e-07
2485.0,4.861e-07
2490.0,2.795e-07
2495.0,2.418e-07
2500.0,5.999e-07
2505.0,1.22e-07
2510.0,1.796e-07
2515.0,1.268e-07
2520.0,2.136e-08
2525.0,2.436e-09
2530.0,1.696e-11
2535.0,3.75e-12
2540.0,8.896e-12
2545.0,6.9e-16
2550.0,2.797e-18
2555.0,1.343e-14
2560.0,4.03e-16
2565.0,9.022000000000001e-20
2570.0,2.686e-24
2575.0,1.699e-34
2580.0,1.772e-28
2585.0,3.7040000000000004e-42
2590.0,2.311e-38
2595.0,4.496e-40
2600.0,3.702e-35
2605.0,4.0900000000000006e-42
2610.0,1.408e-41
2615.0,1.4009999999999999e-45
2620.0,1.241e-35
2625.0,2.2730000000000002e-35
2630.0,0.0
2635.0,1.183e-21
2640.0,2.562e-22
2645.0,1.117e-24
2650.0,1.112e-25
2655.0,1.338e-34
2660.0,1.126e-31
2665.0,1.121e-44
2670.0,0.0
2675.0,5.464999999999999e-44
2680.0,2.284e-30
2685.0,2.182e-31
2690.0,8.163e-31
2695.0,3.202e-33
2700.0,9.328e-29
2705.0,2.645e-26
2710.0,2.107e-31
2715.0,2.6599999999999997e-29
2720.0,0.0
2725.0,5.956e-27
2730.0,1.736e-24
2735.0,1.98e-26
2740.0,3.577e-32
2745.0,4.612e-27
2750.0,2.585e-26
2755.0,4.159e-28
2760.0,6.231e-23
2765.0,2.925e-29
2770.0,1.437e-26
2775.0,1.774e-23
2780.0,8.261e-21
2785.0,3.1020000000000004e-20
2790.0,7.072e-18
2795.0,1.556e-18
2800.0,4.967e-15
2805.0,9.287e-17
2810.0,3.724e-13
2815.0,1.111e-13
2820.0,1.357e-15
2825.0,2.749e-11
2830.0,2.589e-10
2835.0,3.566e-15
2840.0,7.631e-12
2845.0,2.641e-09
2850.0,4.571e-11
2855.0,2.102e-11
2860.0,9.494e-10
2865.0,6.999e-09
2870.0,1.775e-10
2875.0,1.704e-08
2880.0,1.074e-08
2885.0,1.769e-08
2890.0,1.017e-08
2895.0,1.281e-07
2900.0,3.572e-08
2905.0,4.134e-09
2910.0,1.307e-07
2915.0,5.547e-08
2920.0,1.377e-07
2925.0,4.907e-08
2930.0,2.97e-07
2935.0,3.275e-07
2940.0,7.332e-08
2945.0,6.296e-08
2950.0,2.541e-07
2955.0,1.132e-07
2960.0,2.245e-07
2965.0,3.801e-07
2970.0,1.489e-08
2975.0,3.773e-08
2980.0,5.873e-08
2985.0,3.455e-07
2990.0,5.267e-07
2995.0,2.029e-07
3000.0,3.786e-07
3005.0,1.286e-07
3010.0,3.317e-07
3015.0,2.566e-07
3020.0,2.317e-08
3025.0,3.532e-07
3030.0,2.784e-07
3035.0,1.058e-07
3040.0,8.267e-08
3045.0,1.776e-07
3050.0,4.025e-08
3055.0,9.979e-09
3060.0,2.764e-07
3065.0,1.17e-07
3070.0,6.575e-08
3075.0,2.576e-07
3080.0,1.497e-07
3085.0,6.609e-08
3090.0,8.987e-08
3095.0,2.211e-08
3100.0,1.796e-07
3105.0,3.366e-08
3110.0,2.817e-08
3115.0,8.453e-08
3120.0,4.142e-07
3125.0,1.968e-06
3130.0,2.416e-07
3135.0,4.849e-07
3140.0,1.288e-07
3145.0,1.262e-07
3150.0,2.664e-07
3155.0,2.255e-07
3160.0,3.733e-07
3165.0,6.072e-07
3170.0,5.817e-07
3175.0,3.634e-07
3180.0,4.388e-07
3185.0,2.997e-07
3190.0,1.581e-07
3195.0,8.721e-08
3200.0,1.231e-08
3205.0,8.041e-09
3210.0,3.35e-09
3215.0,1.362e-08
3220.0,4.781e-08
3225.0,5.498e-09
3230.0,9.132e-09
3235.0,2.559e-07
3240.0,1.163e-07
3245.0,2.209e-08
3250.0,8.147e-08
3255.0,3.49e-07
3260.0,3.488e-08
3265.0,7.545e-08
3270.0,3.553e-08
3275.0,2.144e-07
3280.0,9.106e-08
3285.0,3.953e-07
3290.0,2.967e-07
3295.0,3.655e-08
3300.0,5.425e-08
3305.0,1.246e-07
3310.0,1.183e-07
3315.0,1.715e-10
3320.0,1.08e-09
3325.0,9.935e-08
3330.0,1.513e-07
3335.0,2.927e-07
3340.0,1.533e-06
3345.0,1.045e-07
3350.0,2.645e-07
3355.0,1.058e-07
3360.0,1.624e-07
3365.0,2.544e-07
3370.0,1.108e-07
3375.0,3.621e-07
3380.0,1.458e-07
3385.0,5.88e-07
3390.0,3.142e-07
3395.0,4.409e-07
3400.0,3.259e-06
3405.0,1.215e-07
3410.0,5.683e-07
3415.0,2.078e-07
3420.0,1.061e-05
3425.0,3.624e-07
3430.0,2.524e-07
3435.0,9.462e-06
3440.0,2.287e-07
3445.0,2.796e-06
3450.0,9.238e-07
3455.0,3.152e-07
3460.0,1.279e-05
3465.0,3.336e-07
3470.0,1.245e-05
3475.0,1.541e-06
3480.0,1.539e-06
3485.0,9.904e-06
3490.0,8.143e-07
3495.0,1.058e-05
3500.0,1.074e-05
3505.0,8.03e-06
3510.0,9.492e-06
3515.0,7.806e-06
3520.0,1.658e-05
3525.0,1.434e-05
3530.0,6.776e-06
3535.0,7.97e-07
3540.0,6.127e-07
3545.0,6.146e-07
3550.0,5.788e-06
3555.0,1.055e-06
3560.0,1.028e-05
3565.0,4.431e-06
3570.0,1.098e-06
3575.0,6.016e-07
3580.0,4.522e-06
3585.0,1.112e-06
3590.0,3.116e-06
3595.0,9.981e-06
3600.0,1.505e-05
3605.0,5.029e-06
3610.0,3.573e-06
3615.0,1.113e-05
3620.0,4.21e-05
3625.0,7.47e-06
3630.0,1.339e-05
3635.0,1.668e-05
3640.0,5.509e-05
3645.0,1.123e-05
3650.0,1.301e-05
3655.0,3.004e-05
3660.0,3.823e-05
3665.0,8.068e-06
3670.0,3.38e-06
3675.0,1.492e-07
3680.0,1.84e-06
3685.0,4.953e-06
3690.0,5.037e-06
3695.0,2.003e-05
3700.0,5.533e-05
3705.0,5.208e-05
3710.0,9.407e-06
3715.0,1.693e-05
3720.0,3.445e-05
3725.0,4.322e-05
3730.0,1.535e-05
3735.0,7.308e-06
3740.0,1.477e-05
3745.0,4.05e-05
3750.0,2.351e-05
3755.0,1.445e-05
3760.0,7.401e-06
3765.0,9.655e-06
3770.0,1.354e-05
3775.0,1.604e-05
3780.0,2.897e-05
3785.0,1.522e-05
3790.0,6.339e-06
3795.0,2.205e-05
3800.0,4.216e-05
3805.0,2.926e-05
3810.0,1.101e-05
3815.0,8.418e-06
3820.0,4.15e-05
3825.0,4.097e-05
3830.0,4.286e-05
3835.0,6.218e-06
3840.0,2.228e-05
3845.0,1.384e-05
3850.0,1.396e-05
3855.0,1.053e-05
3860.0,2.514e-06
3865.0,2.77e-06
3870.0,6.023e-07
3875.0,2.11e-07
3880.0,1.564e-07
3885.0,2.074e-07
3890.0,2.489e-07
3895.0,7.834e-07
3900.0,3.443e-06
3905.0,2.834e-06
3910.0,4.319e-07
3915.0,3.386e-07
3920.0,3.611e-07
3925.0,3.433e-07
3930.0,4.714e-07
3935.0,9.649e-07
3940.0,1.217e-06
3945.0,1.817e-06
3950.0,2.816e-06
3955.0,3.509e-06
3960.0,4.281e-06
3965.0,5.008e-06
3970.0,4.221e-06
3975.0,2.752e-06
3980.0,2.318e-06
3985.0,2.723e-06
3990.0,2.306e-06
3995.0,1.655e-06
4000.0,1.195e-06
