interpolation:linear
wavelength,value
280.0,8.77e-21
280.5,1.804e-19
281.0,8.237e-19
281.5,1.673e-17
282.0,1.024e-16
282.5,3.278e-16
283.0,1.187e-15
283.5,2.018e-15
284.0,3.29e-14
284.5,9.175e-14
285.0,2.08e-13
285.5,1.272e-12
286.0,5.387e-12
286.5,2.563e-11
287.0,7.501e-11
287.5,2.909e-10
288.0,9.088e-10
288.5,3.156e-09
289.0,9.22e-09
289.5,2.965e-08
290.0,8.51e-08
290.5,1.769e-07
291.0,3.856e-07
291.5,1.122e-06
292.0,2.409e-06
292.5,3.307e-06
293.0,6.879e-06
293.5,1.602e-05
294.0,2.415e-05
294.5,4.705e-05
295.0,7.878e-05
295.5,0.0001544
296.0,0.000264
296.5,0.0003282
297.0,0.0004038
297.5,0.0009413
298.0,0.00132
298.5,0.001214
299.0,0.002456
299.5,0.003514
300.0,0.003565
300.5,0.004755
301.0,0.007553
301.5,0.01073
302.0,0.008661
302.5,0.01556
303.0,0.02512
303.5,0.02963
304.0,0.02672
304.5,0.03588
305.0,0.0471
305.5,0.04935
306.0,0.04616
306.5,0.05434
307.0,0.07146
307.5,0.08486
308.0,0.08798
308.5,0.09839
309.0,0.09185
309.5,0.09711
310.0,0.094
310.5,0.1494
311.0,0.1818
311.5,0.1731
312.0,0.1619
312.5,0.1885
313.0,0.1997
313.5,0.198
314.0,0.2347
314.5,0.194
315.0,0.2517
315.5,0.2176
316.0,0.1795
316.5,0.2455
317.0,0.305
317.5,0.3215
318.0,0.2426
318.5,0.2827
319.0,0.3249
319.5,0.2784
320.0,0.3388
320.5,0.3976
321.0,0.3344
321.5,0.3186
322.0,0.3607
322.5,0.3126
323.0,0.2991
323.5,0.3534
324.0,0.4096
324.5,0.4226
325.0,0.373
325.5,0.4646
326.0,0.561
326.5,0.5497
327.0,0.5519
327.5,0.5381
328.0,0.4929
328.5,0.5001
329.0,0.5826
329.5,0.6557
330.0,0.6654
330.5,0.5434
331.0,0.5573
331.5,0.5574
332.0,0.5887
332.5,0.5763
333.0,0.5777
333.5,0.5312
334.0,0.5454
334.5,0.6175
335.0,0.5739
335.5,0.6697
336.0,0.4631
336.5,0.5451
337.0,0.4505
337.5,0.5616
338.0,0.5399
338.5,0.6225
339.0,0.6157
339.5,0.5919
340.0,0.6958
340.5,0.626
341.0,0.6105
341.5,0.5601
342.0,0.669
342.5,0.6255
343.0,0.6878
343.5,0.6476
344.0,0.4781
344.5,0.4829
345.0,0.6385
345.5,0.6513
346.0,0.5531
346.5,0.6259
347.0,0.6718
347.5,0.543
348.0,0.6186
348.5,0.618
349.0,0.5729
349.5,0.5669
350.0,0.7008
350.5,0.7389
351.0,0.66
351.5,0.6414
352.0,0.6884
352.5,0.5369
353.0,0.6757
353.5,0.7222
354.0,0.7495
354.5,0.7599
355.0,0.7572
355.5,0.6836
356.0,0.7149
356.5,0.6103
357.0,0.5042
357.5,0.6171
358.0,0.4889
358.5,0.4177
359.0,0.5842
359.5,0.7445
360.0,0.7889
360.5,0.6303
361.0,0.5743
361.5,0.6607
362.0,0.5709
362.5,0.7895
363.0,0.7086
363.5,0.6523
364.0,0.7974
364.5,0.6814
365.0,0.6937
365.5,0.8704
366.0,0.9217
366.5,0.8655
367.0,0.8426
367.5,0.8742
368.0,0.7648
368.5,0.7714
369.0,0.8328
369.5,0.8873
370.0,0.9456
370.5,0.7336
371.0,0.7836
371.5,0.9801
372.0,0.6504
372.5,0.7796
373.0,0.7926
373.5,0.5155
374.0,0.7489
374.5,0.62
375.0,0.6025
375.5,0.8994
376.0,0.7455
376.5,0.7724
377.0,0.8175
377.5,0.9561
378.0,1.036
378.5,0.9794
379.0,0.8082
379.5,0.7383
380.0,0.7675
380.5,0.9292
381.0,0.9307
381.5,0.7374
382.0,0.6546
382.5,0.5577
383.0,0.5161
383.5,0.497
384.0,0.5481
384.5,0.8059
385.0,0.799
385.5,0.7438
386.0,0.6369
386.5,0.8362
387.0,0.6948
387.5,0.7802
388.0,0.7202
388.5,0.7117
389.0,0.7681
389.5,0.9301
390.0,0.9332
390.5,0.8586
391.0,1.01
391.5,1.03
392.0,0.8678
392.5,0.7766
393.0,0.432
393.5,0.3139
394.0,0.6387
394.5,0.8118
395.0,0.9904
395.5,1.006
396.0,0.872
396.5,0.5095
397.0,0.3823
397.5,0.7773
398.0,1.089
398.5,1.125
399.0,1.218
399.5,1.213
400.0,1.26
401.0,1.282
402.0,1.352
403.0,1.284
404.0,1.263
405.0,1.263
406.0,1.241
407.0,1.221
408.0,1.268
409.0,1.357
410.0,1.185
411.0,1.283
412.0,1.377
413.0,1.342
414.0,1.358
415.0,1.361
416.0,1.384
417.0,1.349
418.0,1.324
419.0,1.341
420.0,1.334
421.0,1.395
422.0,1.326
423.0,1.295
424.0,1.369
425.0,1.366
426.0,1.329
427.0,1.304
428.0,1.27
429.0,1.202
430.0,1.051
431.0,1.042
432.0,1.345
433.0,1.351
434.0,1.255
435.0,1.31
436.0,1.475
437.0,1.454
438.0,1.324
439.0,1.37
440.0,1.413
441.0,1.463
442.0,1.568
443.0,1.528
444.0,1.56
445.0,1.527
446.0,1.456
447.0,1.572
448.0,1.598
449.0,1.602
450.0,1.646
451.0,1.707
452.0,1.644
453.0,1.546
454.0,1.612
455.0,1.622
456.0,1.66
457.0,1.688
458.0,1.631
459.0,1.622
460.0,1.626
461.0,1.663
462.0,1.675
463.0,1.664
464.0,1.635
465.0,1.613
466.0,1.627
467.0,1.598
468.0,1.617
469.0,1.625
470.0,1.573
471.0,1.571
472.0,1.655
473.0,1.634
474.0,1.637
475.0,1.652
476.0,1.604
477.0,1.61
478.0,1.654
479.0,1.643
480.0,1.645
481.0,1.674
482.0,1.681
483.0,1.659
484.0,1.625
485.0,1.547
486.0,1.351
487.0,1.416
488.0,1.553
489.0,1.558
490.0,1.639
491.0,1.61
492.0,1.52
493.0,1.569
494.0,1.585
495.0,1.598
496.0,1.608
497.0,1.633
498.0,1.556
499.0,1.577
500.0,1.531
501.0,1.504
502.0,1.485
503.0,1.547
504.0,1.513
505.0,1.563
506.0,1.613
507.0,1.535
508.0,1.485
509.0,1.526
510.0,1.517
511.0,1.556
512.0,1.572
513.0,1.488
514.0,1.477
515.0,1.463
516.0,1.459
517.0,1.296
518.0,1.363
519.0,1.429
520.0,1.482
521.0,1.496
522.0,1.498
523.0,1.471
524.0,1.524
525.0,1.544
526.0,1.475
527.0,1.391
528.0,1.472
529.0,1.552
530.0,1.53
531.0,1.553
532.0,1.5
533.0,1.456
534.0,1.499
535.0,1.531
536.0,1.544
537.0,1.483
538.0,1.509
539.0,1.496
540.0,1.435
541.0,1.446
542.0,1.492
543.0,1.475
544.0,1.502
545.0,1.497
546.0,1.505
547.0,1.503
548.0,1.484
549.0,1.488
550.0,1.506
551.0,1.487
552.0,1.498
553.0,1.471
554.0,1.507
555.0,1.51
556.0,1.49
557.0,1.445
558.0,1.435
559.0,1.409
560.0,1.427
561.0,1.446
562.0,1.436
563.0,1.477
564.0,1.437
565.0,1.426
566.0,1.406
567.0,1.433
568.0,1.423
569.0,1.395
570.0,1.394
571.0,1.384
572.0,1.421
573.0,1.436
574.0,1.433
575.0,1.407
576.0,1.394
577.0,1.409
578.0,1.386
579.0,1.389
580.0,1.412
581.0,1.416
582.0,1.441
583.0,1.442
584.0,1.453
585.0,1.417
586.0,1.388
587.0,1.42
588.0,1.392
589.0,1.247
590.0,1.303
591.0,1.37
592.0,1.358
593.0,1.372
594.0,1.365
595.0,1.336
596.0,1.378
597.0,1.365
598.0,1.359
599.0,1.358
600.0,1.358
601.0,1.344
602.0,1.335
603.0,1.356
604.0,1.378
605.0,1.37
606.0,1.364
607.0,1.376
608.0,1.36
609.0,1.361
610.0,1.35
611.0,1.357
612.0,1.352
613.0,1.335
614.0,1.316
615.0,1.343
616.0,1.298
617.0,1.295
618.0,1.345
619.0,1.331
620.0,1.339
621.0,1.341
622.0,1.327
623.0,1.307
624.0,1.284
625.0,1.281
626.0,1.3
627.0,1.317
628.0,1.258
629.0,1.296
630.0,1.267
631.0,1.286
632.0,1.269
633.0,1.303
634.0,1.288
635.0,1.306
636.0,1.287
637.0,1.307
638.0,1.318
639.0,1.302
640.0,1.288
641.0,1.286
642.0,1.279
643.0,1.296
644.0,1.291
645.0,1.294
646.0,1.267
647.0,1.259
648.0,1.262
649.0,1.238
650.0,1.234
651.0,1.285
652.0,1.243
653.0,1.268
654.0,1.253
655.0,1.212
656.0,1.07
657.0,1.098
658.0,1.228
659.0,1.235
660.0,1.24
661.0,1.249
662.0,1.253
663.0,1.227
664.0,1.239
665.0,1.238
666.0,1.238
667.0,1.236
668.0,1.236
669.0,1.254
670.0,1.248
671.0,1.247
672.0,1.236
673.0,1.255
674.0,1.249
675.0,1.238
676.0,1.246
677.0,1.233
678.0,1.236
679.0,1.216
680.0,1.225
681.0,1.217
682.0,1.216
683.0,1.213
684.0,1.207
685.0,1.217
686.0,1.21
687.0,0.9287
688.0,1.027
689.0,1.028
690.0,1.059
691.0,1.092
692.0,1.114
693.0,1.107
694.0,1.099
695.0,1.129
696.0,1.131
697.0,1.181
698.0,1.163
699.0,1.148
700.0,1.134
701.0,1.126
702.0,1.129
703.0,1.131
704.0,1.16
705.0,1.162
706.0,1.158
707.0,1.158
708.0,1.161
709.0,1.158
710.0,1.16
711.0,1.157
712.0,1.151
713.0,1.142
714.0,1.145
715.0,1.114
716.0,1.116
717.0,1.014
718.0,0.9407
719.0,0.8676
720.0,0.9114
721.0,0.9764
722.0,1.085
723.0,1.027
724.0,0.9443
725.0,0.9358
726.0,0.975
727.0,0.9789
728.0,0.9352
729.0,0.9533
730.0,1.007
731.0,0.9696
732.0,1.019
733.0,1.062
734.0,1.083
735.0,1.062
736.0,1.061
737.0,1.066
738.0,1.071
739.0,1.05
740.0,1.074
741.0,1.062
742.0,1.061
743.0,1.087
744.0,1.083
745.0,1.082
746.0,1.087
747.0,1.089
748.0,1.087
749.0,1.074
750.0,1.074
751.0,1.063
752.0,1.067
753.0,1.072
754.0,1.075
755.0,1.069
756.0,1.068
757.0,1.07
758.0,1.057
759.0,1.041
760.0,0.3205
761.0,0.2095
762.0,0.665
763.0,0.4235
764.0,0.5531
765.0,0.6656
766.0,0.7513
767.0,0.8859
768.0,0.9752
769.0,0.9854
770.0,1.007
771.0,1.01
772.0,1.011
773.0,1.018
774.0,1.012
775.0,1.004
776.0,1.017
777.0,1.003
778.0,0.9971
779.0,0.9979
780.0,0.9922
781.0,0.9931
782.0,0.9992
783.0,0.9817
784.0,0.9862
785.0,0.9794
786.0,0.9905
787.0,0.9779
788.0,0.968
789.0,0.9684
790.0,0.9498
791.0,0.9512
792.0,0.9434
793.0,0.9289
794.0,0.9372
795.0,0.9549
796.0,0.9353
797.0,0.9366
798.0,0.9548
799.0,0.9506
800.0,0.9364
801.0,0.9355
802.0,0.9326
803.0,0.9267
804.0,0.9269
805.0,0.9213
806.0,0.9427
807.0,0.9324
808.0,0.9327
809.0,0.9185
810.0,0.9136
811.0,0.919
812.0,0.8996
813.0,0.8856
814.0,0.8031
815.0,0.7976
816.0,0.7464
817.0,0.7567
818.0,0.7338
819.0,0.7989
820.0,0.761
821.0,0.8608
822.0,0.841
823.0,0.6192
824.0,0.826
825.0,0.8476
826.0,0.8239
827.0,0.8602
828.0,0.7551
829.0,0.8171
830.0,0.8093
831.0,0.811
832.0,0.791
833.0,0.8276
834.0,0.8069
835.0,0.8683
836.0,0.8423
837.0,0.87
838.0,0.8476
839.0,0.8559
840.0,0.8733
841.0,0.8631
842.0,0.8617
843.0,0.8579
844.0,0.8478
845.0,0.8739
846.0,0.8696
847.0,0.8524
848.0,0.8485
849.0,0.8245
850.0,0.7897
851.0,0.8377
852.0,0.8311
853.0,0.7987
854.0,0.6907
855.0,0.7574
856.0,0.8283
857.0,0.8458
858.0,0.84
859.0,0.8401
860.0,0.8411
861.0,0.8367
862.0,0.8496
863.0,0.8697
864.0,0.8261
865.0,0.8188
866.0,0.7362
867.0,0.7682
868.0,0.8359
869.0,0.8185
870.0,0.8418
871.0,0.8304
872.0,0.8274
873.0,0.8257
874.0,0.8159
875.0,0.7994
876.0,0.8078
877.0,0.8158
878.0,0.825
879.0,0.8122
880.0,0.7948
881.0,0.7836
882.0,0.8007
883.0,0.8026
884.0,0.7992
885.0,0.8052
886.0,0.7699
887.0,0.7762
888.0,0.7889
889.0,0.7956
890.0,0.7916
891.0,0.7889
892.0,0.7694
893.0,0.7499
894.0,0.7316
895.0,0.7019
896.0,0.6668
897.0,0.5881
898.0,0.6325
899.0,0.5006
900.0,0.6386
901.0,0.5234
902.0,0.5892
903.0,0.6028
904.0,0.7261
905.0,0.7061
906.0,0.6649
907.0,0.5625
908.0,0.5708
909.0,0.6071
910.0,0.5564
911.0,0.5817
912.0,0.6031
913.0,0.5655
914.0,0.5575
915.0,0.6013
916.0,0.5163
917.0,0.6322
918.0,0.5296
919.0,0.6392
920.0,0.6366
921.0,0.659
922.0,0.6031
923.0,0.636
924.0,0.6185
925.0,0.6057
926.0,0.6119
927.0,0.6717
928.0,0.5312
929.0,0.4954
930.0,0.4069
931.0,0.3822
932.0,0.293
933.0,0.2486
934.0,0.1585
935.0,0.2457
936.0,0.1671
937.0,0.1717
938.0,0.2054
939.0,0.3704
940.0,0.4334
941.0,0.344
942.0,0.3869
943.0,0.2681
944.0,0.2708
945.0,0.3519
946.0,0.1977
947.0,0.358
948.0,0.2666
949.0,0.4604
950.0,0.1585
951.0,0.4502
952.0,0.267
953.0,0.3284
954.0,0.3848
955.0,0.3301
956.0,0.3138
957.0,0.27
958.0,0.4181
959.0,0.3507
960.0,0.3922
961.0,0.4262
962.0,0.4055
963.0,0.455
964.0,0.4213
965.0,0.4516
966.0,0.4549
967.0,0.4539
968.0,0.5679
969.0,0.5953
970.0,0.553
971.0,0.6152
972.0,0.5919
973.0,0.533
974.0,0.509
975.0,0.521
976.0,0.5039
977.0,0.5554
978.0,0.5351
979.0,0.5545
980.0,0.5255
981.0,0.6108
982.0,0.5902
983.0,0.5706
984.0,0.6225
985.0,0.5878
986.0,0.6293
987.0,0.6212
988.0,0.6202
989.0,0.6249
990.0,0.6159
991.0,0.6273
992.0,0.6305
993.0,0.6206
994.0,0.6298
995.0,0.6284
996.0,0.6263
997.0,0.6269
998.0,0.6242
999.0,0.6217
1000.0,0.6184
1001.0,0.625
1002.0,0.6119
1003.0,0.6142
1004.0,0.6002
1005.0,0.5767
1006.0,0.6001
1007.0,0.6123
1008.0,0.6098
1009.0,0.6074
1010.0,0.6052
1011.0,0.6091
1012.0,0.6047
1013.0,0.6074
1014.0,0.6032
1015.0,0.5993
1016.0,0.5967
1017.0,0.5984
1018.0,0.5956
1019.0,0.5845
1020.0,0.5927
1021.0,0.5916
1022.0,0.5876
1023.0,0.594
1024.0,0.5879
1025.0,0.593
1026.0,0.5909
1027.0,0.5894
1028.0,0.5883
1029.0,0.5815
1030.0,0.5849
1031.0,0.5828
1032.0,0.5809
1033.0,0.5722
1034.0,0.5722
1035.0,0.574
1036.0,0.5771
1037.0,0.5677
1038.0,0.5702
1039.0,0.57
1040.0,0.5677
1041.0,0.5701
1042.0,0.5662
1043.0,0.5645
1044.0,0.5665
1045.0,0.5589
1046.0,0.5529
1047.0,0.558
1048.0,0.5611
1049.0,0.5592
1050.0,0.5568
1051.0,0.5562
1052.0,0.5541
1053.0,0.5499
1054.0,0.5512
1055.0,0.5518
1056.0,0.5501
1057.0,0.5486
1058.0,0.5353
1059.0,0.5362
1060.0,0.5355
1061.0,0.535
1062.0,0.538
1063.0,0.5329
1064.0,0.5392
1065.0,0.5359
1066.0,0.5248
1067.0,0.5318
1068.0,0.5206
1069.0,0.5042
1070.0,0.5217
1071.0,0.5284
1072.0,0.5234
1073.0,0.5156
1074.0,0.5273
1075.0,0.5054
1076.0,0.5272
1077.0,0.5203
1078.0,0.5113
1079.0,0.518
1080.0,0.5124
1081.0,0.4979
1082.0,0.5022
1083.0,0.5028
1084.0,0.4981
1085.0,0.513
1086.0,0.4756
1087.0,0.4852
1088.0,0.5031
1089.0,0.4919
1090.0,0.4843
1091.0,0.5027
1092.0,0.5004
1093.0,0.4378
1094.0,0.4595
1095.0,0.4538
1096.0,0.4387
1097.0,0.4886
1098.0,0.4331
1099.0,0.4496
1100.0,0.4244
1101.0,0.4277
1102.0,0.4121
1103.0,0.4109
1104.0,0.4111
1105.0,0.4406
1106.0,0.3607
1107.0,0.4231
1108.0,0.373
1109.0,0.371
1110.0,0.421
1111.0,0.3054
1112.0,0.367
1113.0,0.2548
1114.0,0.2818
1115.0,0.2343
1116.0,0.2006
1117.0,0.09001
1118.0,0.2127
1119.0,0.118
1120.0,0.1484
1121.0,0.1888
1122.0,0.09048
1123.0,0.1338
1124.0,0.1131
1125.0,0.1446
1126.0,0.06155
1127.0,0.1621
1128.0,0.1089
1129.0,0.1134
1130.0,0.08071
1131.0,0.28
1132.0,0.2249
1133.0,0.1568
1134.0,0.05014
1135.0,0.01843
1136.0,0.136
1137.0,0.2786
1138.0,0.2001
1139.0,0.2725
1140.0,0.2376
1141.0,0.1901
1142.0,0.213
1143.0,0.2917
1144.0,0.1159
1145.0,0.1507
1146.0,0.1627
1147.0,0.06929
1148.0,0.2527
1149.0,0.21
1150.0,0.1245
1151.0,0.1987
1152.0,0.235
1153.0,0.222
1154.0,0.1492
1155.0,0.2846
1156.0,0.2612
1157.0,0.2864
1158.0,0.2828
1159.0,0.2983
1160.0,0.2635
1161.0,0.3098
1162.0,0.3123
1163.0,0.3976
1164.0,0.3501
1165.0,0.3382
1166.0,0.3306
1167.0,0.3555
1168.0,0.361
1169.0,0.3663
1170.0,0.3913
1171.0,0.3828
1172.0,0.386
1173.0,0.3905
1174.0,0.2985
1175.0,0.3788
1176.0,0.4075
1177.0,0.3968
1178.0,0.313
1179.0,0.4104
1180.0,0.3763
1181.0,0.3872
1182.0,0.2833
1183.0,0.3789
1184.0,0.3605
1185.0,0.3523
1186.0,0.4025
1187.0,0.388
1188.0,0.2892
1189.0,0.3627
1190.0,0.3934
1191.0,0.3811
1192.0,0.398
1193.0,0.3843
1194.0,0.3941
1195.0,0.378
1196.0,0.3677
1197.0,0.3911
1198.0,0.3625
1199.0,0.3209
1200.0,0.3799
1201.0,0.3706
1202.0,0.3662
1203.0,0.363
1204.0,0.3249
1205.0,0.3709
1206.0,0.4025
1207.0,0.3663
1208.0,0.3568
1209.0,0.3632
1210.0,0.3755
1211.0,0.3625
1212.0,0.3632
1213.0,0.3918
1214.0,0.3692
1215.0,0.3636
1216.0,0.3904
1217.0,0.3825
1218.0,0.3875
1219.0,0.3838
1220.0,0.3875
1221.0,0.3901
1222.0,0.3815
1223.0,0.3788
1224.0,0.3781
1225.0,0.3876
1226.0,0.3888
1227.0,0.3648
1228.0,0.3895
1229.0,0.3887
1230.0,0.3833
1231.0,0.3904
1232.0,0.3882
1233.0,0.3796
1234.0,0.3891
1235.0,0.3873
1236.0,0.3896
1237.0,0.386
1238.0,0.3882
1239.0,0.3833
1240.0,0.3845
1241.0,0.3839
1242.0,0.382
1243.0,0.3788
1244.0,0.3819
1245.0,0.3833
1246.0,0.381
1247.0,0.3798
1248.0,0.3802
1249.0,0.3808
1250.0,0.3789
1251.0,0.3747
1252.0,0.3739
1253.0,0.3725
1254.0,0.37
1255.0,0.3739
1256.0,0.3665
1257.0,0.3651
1258.0,0.3695
1259.0,0.3608
1260.0,0.3621
1261.0,0.3478
1262.0,0.3406
1263.0,0.3414
1264.0,0.3227
1265.0,0.3391
1266.0,0.3307
1267.0,0.3334
1268.0,0.3211
1269.0,0.2345
1270.0,0.3334
1271.0,0.3459
1272.0,0.3463
1273.0,0.3433
1274.0,0.3435
1275.0,0.3474
1276.0,0.3495
1277.0,0.3506
1278.0,0.3548
1279.0,0.3518
1280.0,0.3472
1281.0,0.3302
1282.0,0.3163
1283.0,0.341
1284.0,0.3496
1285.0,0.3516
1286.0,0.3553
1287.0,0.3518
1288.0,0.3512
1289.0,0.3437
1290.0,0.3478
1291.0,0.352
1292.0,0.3377
1293.0,0.3469
1294.0,0.3449
1295.0,0.3448
1296.0,0.3338
1297.0,0.3196
1298.0,0.3366
1299.0,0.3466
1300.0,0.3064
1301.0,0.3131
1302.0,0.3352
1303.0,0.301
1304.0,0.2691
1305.0,0.3294
1306.0,0.3301
1307.0,0.2707
1308.0,0.2996
1309.0,0.3284
1310.0,0.2661
1311.0,0.29
1312.0,0.2841
1313.0,0.2805
1314.0,0.2556
1315.0,0.255
1316.0,0.2874
1317.0,0.2736
1318.0,0.2923
1319.0,0.2435
1320.0,0.2327
1321.0,0.2658
1322.0,0.2705
1323.0,0.2163
1324.0,0.2388
1325.0,0.2838
1326.0,0.2517
1327.0,0.2421
1328.0,0.2129
1329.0,0.1707
1330.0,0.2164
1331.0,0.1447
1332.0,0.1445
1333.0,0.1969
1334.0,0.1619
1335.0,0.2151
1336.0,0.1768
1337.0,0.161
1338.0,0.1732
1339.0,0.1708
1340.0,0.1628
1341.0,0.1665
1342.0,0.1745
1343.0,0.1357
1344.0,0.08136
1345.0,0.1144
1346.0,0.06981
1347.0,0.07307
1348.0,0.008143
1349.0,0.0247
1350.0,0.02282
1351.0,0.008901
1352.0,0.003788
1353.0,0.0003512
1354.0,0.0008537
1355.0,2.145e-05
1356.0,0.0001816
1357.0,0.0002697
1358.0,2.428e-05
1359.0,6.828e-06
1360.0,1.481e-05
1361.0,9.88e-08
1362.0,6.371e-10
1363.0,2.324e-05
1364.0,1.1e-05
1365.0,5.464e-10
1366.0,8.102e-05
1367.0,3.144e-05
1368.0,2.631e-11
1369.0,4.426e-06
1370.0,3.045e-06
1371.0,2.79e-07
1372.0,1.761e-05
1373.0,0.0001952
1374.0,0.0006138
1375.0,0.001073
1376.0,0.0007556
1377.0,0.0003831
1378.0,0.002948
1379.0,0.0001669
1380.0,0.0002944
1381.0,1.049e-05
1382.0,1.739e-05
1383.0,3.927e-07
1384.0,5.639e-06
1385.0,1.157e-05
1386.0,1.926e-05
1387.0,0.0007552
1388.0,1.758e-05
1389.0,0.00174
1390.0,0.001474
1391.0,0.001103
1392.0,8.805e-05
1393.0,0.0003688
1394.0,0.0003354
1395.0,4.316e-06
1396.0,1.137e-07
1397.0,0.0001735
1398.0,0.003379
1399.0,0.002171
1400.0,7.6e-08
1401.0,1.726e-07
1402.0,0.003743
1403.0,0.005089
1404.0,0.001621
1405.0,2.818e-06
1406.0,0.004779
1407.0,0.0004175
1408.0,0.003846
1409.0,0.001707
1410.0,0.001212
1411.0,0.004419
1412.0,0.005219
1413.0,0.03409
1414.0,0.0009319
1415.0,0.000518
1416.0,0.04526
1417.0,0.0181
1418.0,0.02045
1419.0,0.003443
1420.0,0.01274
1421.0,0.01438
1422.0,0.05749
1423.0,0.0125
1424.0,0.02233
1425.0,0.03394
1426.0,0.03507
1427.0,0.05617
1428.0,0.007918
1429.0,0.04543
1430.0,0.06914
1431.0,0.07385
1432.0,0.006394
1433.0,0.05012
1434.0,0.02712
1435.0,0.03249
1436.0,0.05377
1437.0,0.04148
1438.0,0.02007
1439.0,0.06912
1440.0,0.05252
1441.0,0.04403
1442.0,0.04756
1443.0,0.0537
1444.0,0.07228
1445.0,0.06111
1446.0,0.02895
1447.0,0.04584
1448.0,0.12
1449.0,0.109
1450.0,0.03395
1451.0,0.01505
1452.0,0.06999
1453.0,0.08892
1454.0,0.1369
1455.0,0.07053
1456.0,0.09727
1457.0,0.1208
1458.0,0.1335
1459.0,0.1591
1460.0,0.08796
1461.0,0.09549
1462.0,0.1324
1463.0,0.04852
1464.0,0.1496
1465.0,0.09161
1466.0,0.07318
1467.0,0.0434
1468.0,0.08361
1469.0,0.09972
1470.0,0.05736
1471.0,0.02266
1472.0,0.0552
1473.0,0.07602
1474.0,0.1004
1475.0,0.1748
1476.0,0.0735
1477.0,0.07586
1478.0,0.06648
1479.0,0.1203
1480.0,0.06558
1481.0,0.1162
1482.0,0.06156
1483.0,0.1465
1484.0,0.1334
1485.0,0.1232
1486.0,0.1226
1487.0,0.06419
1488.0,0.09908
1489.0,0.178
1490.0,0.1632
1491.0,0.1791
1492.0,0.1586
1493.0,0.1709
1494.0,0.186
1495.0,0.1672
1496.0,0.1581
1497.0,0.2016
1498.0,0.1724
1499.0,0.1974
1500.0,0.219
1501.0,0.2298
1502.0,0.1961
1503.0,0.1736
1504.0,0.145
1505.0,0.1683
1506.0,0.2264
1507.0,0.2208
1508.0,0.2105
1509.0,0.1719
1510.0,0.234
1511.0,0.2288
1512.0,0.2248
1513.0,0.2124
1514.0,0.2018
1515.0,0.2297
1516.0,0.2216
1517.0,0.2192
1518.0,0.2182
1519.0,0.2153
1520.0,0.227
1521.0,0.2355
1522.0,0.2281
1523.0,0.2386
1524.0,0.234
1525.0,0.227
1526.0,0.2299
1527.0,0.2279
1528.0,0.238
1529.0,0.2281
1530.0,0.225
1531.0,0.2311
1532.0,0.2367
1533.0,0.236
1534.0,0.2326
1535.0,0.2328
1536.0,0.2361
1537.0,0.2321
1538.0,0.2329
1539.0,0.2298
1540.0,0.2295
1541.0,0.2316
1542.0,0.2303
1543.0,0.2334
1544.0,0.2319
1545.0,0.2349
1546.0,0.232
1547.0,0.2281
1548.0,0.228
1549.0,0.2296
1550.0,0.2282
1551.0,0.2301
1552.0,0.2291
1553.0,0.2267
1554.0,0.225
1555.0,0.2254
1556.0,0.2254
1557.0,0.228
1558.0,0.2267
1559.0,0.2254
1560.0,0.2269
1561.0,0.2285
1562.0,0.226
1563.0,0.224
1564.0,0.2251
1565.0,0.2251
1566.0,0.2223
1567.0,0.2226
1568.0,0.2204
1569.0,0.2214
1570.0,0.2234
1571.0,0.2251
1572.0,0.2235
1573.0,0.2222
1574.0,0.2145
1575.0,0.2121
1576.0,0.2094
1577.0,0.2042
1578.0,0.2146
1579.0,0.2171
1580.0,0.2187
1581.0,0.2154
1582.0,0.2108
1583.0,0.212
1584.0,0.2148
1585.0,0.2169
1586.0,0.2146
1587.0,0.211
1588.0,0.2042
1589.0,0.1978
1590.0,0.2025
1591.0,0.2073
1592.0,0.214
1593.0,0.2168
1594.0,0.2168
1595.0,0.2137
1596.0,0.2075
1597.0,0.2132
1598.0,0.2155
1599.0,0.213
1600.0,0.2114
1601.0,0.2087
1602.0,0.2097
1603.0,0.2112
1604.0,0.2096
1605.0,0.2095
1606.0,0.2071
1607.0,0.2089
1608.0,0.2092
1609.0,0.2034
1610.0,0.1992
1611.0,0.2028
1612.0,0.2049
1613.0,0.2056
1614.0,0.2054
1615.0,0.2007
1616.0,0.1976
1617.0,0.2017
1618.0,0.2049
1619.0,0.2016
1620.0,0.1968
1621.0,0.1992
1622.0,0.2023
1623.0,0.2052
1624.0,0.2031
1625.0,0.2023
1626.0,0.2029
1627.0,0.2043
1628.0,0.204
1629.0,0.202
1630.0,0.2009
1631.0,0.2003
1632.0,0.1996
1633.0,0.1947
1634.0,0.1977
1635.0,0.1965
1636.0,0.1939
1637.0,0.1913
1638.0,0.1826
1639.0,0.1873
1640.0,0.1824
1641.0,0.1863
1642.0,0.1893
1643.0,0.1831
1644.0,0.1891
1645.0,0.1863
1646.0,0.1842
1647.0,0.1922
1648.0,0.1833
1649.0,0.1885
1650.0,0.1895
1651.0,0.1807
1652.0,0.1885
1653.0,0.1897
1654.0,0.1832
1655.0,0.1897
1656.0,0.1881
1657.0,0.1887
1658.0,0.19
1659.0,0.1889
1660.0,0.1905
1661.0,0.1899
1662.0,0.186
1663.0,0.1884
1664.0,0.1872
1665.0,0.1801
1666.0,0.1583
1667.0,0.1784
1668.0,0.1818
1669.0,0.1836
1670.0,0.1859
1671.0,0.1812
1672.0,0.1785
1673.0,0.1824
1674.0,0.1799
1675.0,0.1768
1676.0,0.1777
1677.0,0.178
1678.0,0.1743
1679.0,0.1754
1680.0,0.1686
1681.0,0.1648
1682.0,0.1722
1683.0,0.1759
1684.0,0.1686
1685.0,0.178
1686.0,0.1775
1687.0,0.1732
1688.0,0.1768
1689.0,0.1749
1690.0,0.1752
1691.0,0.1653
1692.0,0.1752
1693.0,0.1784
1694.0,0.1739
1695.0,0.1769
1696.0,0.1766
1697.0,0.1575
1698.0,0.1755
1699.0,0.1733
1700.0,0.1698
1702.0,0.1714
1705.0,0.1679
1710.0,0.1606
1715.0,0.1607
1720.0,0.1586
1725.0,0.1509
1730.0,0.1488
1735.0,0.1393
1740.0,0.1416
1745.0,0.1344
1750.0,0.1424
1755.0,0.133
1760.0,0.1378
1765.0,0.1166
1770.0,0.1246
1775.0,0.1043
1780.0,0.09187
1785.0,0.07329
1790.0,0.08364
1795.0,0.04963
1800.0,0.03321
1805.0,0.01857
1810.0,0.01229
1815.0,0.005576
1820.0,0.001934
1825.0,0.002491
1830.0,2.475e-05
1835.0,2.31e-05
1840.0,4.897e-07
1845.0,3.84e-05
1850.0,1.974e-05
1855.0,2.029e-06
1860.0,4.268e-05
1865.0,7.206e-05
1870.0,6.113e-09
1875.0,9.805e-09
1880.0,0.0002417
1885.0,0.0001487
1890.0,0.000656
1895.0,0.0003797
1900.0,5.088e-06
1905.0,3.191e-06
1910.0,9.431e-05
1915.0,6.788e-05
1920.0,0.001116
1925.0,0.001875
1930.0,0.001161
1935.0,0.005625
1940.0,0.004734
1945.0,0.01498
1950.0,0.02555
1955.0,0.02486
1960.0,0.03645
1965.0,0.04906
1970.0,0.064
1975.0,0.07072
1980.0,0.07037
1985.0,0.07432
1990.0,0.07656
1995.0,0.07947
2000.0,0.08278
2005.0,0.07273
2010.0,0.09548
2015.0,0.08034
2020.0,0.08429
2025.0,0.08935
2030.0,0.0841
2035.0,0.08899
2040.0,0.08628
2045.0,0.08839
2050.0,0.08885
2055.0,0.08622
2060.0,0.0839
2065.0,0.08475
2070.0,0.08404
2075.0,0.08521
2080.0,0.08324
2085.0,0.0827
2090.0,0.08308
2095.0,0.08097
2100.0,0.07719
2105.0,0.08145
2110.0,0.07882
2115.0,0.0799
2120.0,0.07616
2125.0,0.07672
2130.0,0.07723
2135.0,0.07739
2140.0,0.07774
2145.0,0.07698
2150.0,0.07358
2155.0,0.07339
2160.0,0.07244
2165.0,0.06655
2170.0,0.07019
2175.0,0.06934
2180.0,0.0704
2185.0,0.06483
2190.0,0.06841
2195.0,0.06796
2200.0,0.06224
2205.0,0.06394
2210.0,0.06758
2215.0,0.06548
2220.0,0.06639
2225.0,0.06474
2230.0,0.06493
2235.0,0.06368
2240.0,0.06296
2245.0,0.06123
2250.0,0.06199
2255.0,0.05902
2260.0,0.05833
2265.0,0.05918
2270.0,0.05678
2275.0,0.05606
2280.0,0.05748
2285.0,0.05494
2290.0,0.05486
2295.0,0.05346
2300.0,0.05161
2305.0,0.05185
2310.0,0.05502
2315.0,0.05083
2320.0,0.04605
2325.0,0.04926
2330.0,0.04961
2335.0,0.0503
2340.0,0.04153
2345.0,0.04561
2350.0,0.0376
2355.0,0.04247
2360.0,0.0444
2365.0,0.0435
2370.0,0.02937
2375.0,0.03969
2380.0,0.03793
2385.0,0.02905
2390.0,0.03325
2395.0,0.03612
2400.0,0.03884
2405.0,0.03067
2410.0,0.03093
2415.0,0.02578
2420.0,0.02469
2425.0,0.03031
2430.0,0.03949
2435.0,0.01483
2440.0,0.03827
2445.0,0.02015
2450.0,0.01392
2455.0,0.02357
2460.0,0.03072
2465.0,0.02328
2470.0,0.01719
2475.0,0.01708
2480.0,0.009169
2485.0,0.006921
2490.0,0.004771
2495.0,0.004142
2500.0,0.008733
2505.0,0.002115
2510.0,0.003045
2515.0,0.0008621
2520.0,0.000848
2525.0,0.0001013
2530.0,4.733e-06
2535.0,1.773e-06
2540.0,3.191e-06
2545.0,1.331e-09
2550.0,1.17e-11
2555.0,2.348e-08
2560.0,7.461e-10
2565.0,1.425e-12
2570.0,8.481e-16
2575.0,2.782e-23
2580.0,1.604e-18
2585.0,9.587e-29
2590.0,9.933000000000001e-26
2595.0,5.279e-29
2600.0,2.693e-23
2605.0,6.158e-30
2610.0,2.729e-28
2615.0,1.687e-31
2620.0,8.486e-25
2625.0,3.253e-23
2630.0,1.498e-37
2635.0,7.917e-14
2640.0,3.66e-14
2645.0,7.097e-16
2650.0,2.083e-16
2655.0,5.2429999999999995e-23
2660.0,1.756e-21
2665.0,1.131e-31
2670.0,0.0
2675.0,6.607e-31
2680.0,1.6310000000000002e-20
2685.0,2.8860000000000002e-21
2690.0,5.2850000000000003e-20
2695.0,7.072e-23
2700.0,8.654e-19
2705.0,1.178e-16
2710.0,7.159999999999999e-22
2715.0,9.29e-19
2720.0,4.5220000000000005e-36
2725.0,3.588e-18
2730.0,4.377e-15
2735.0,4.709e-17
2740.0,1.9509999999999998e-22
2745.0,5.985e-18
2750.0,3.486e-17
2755.0,9.231e-19
2760.0,1.603e-14
2765.0,1.025e-19
2770.0,1.996e-17
2775.0,1.032e-14
2780.0,2.94e-13
2785.0,2.757e-13
2790.0,1.106e-10
2795.0,6.601e-11
2800.0,9.322e-09
2805.0,1.825e-10
2810.0,2.837e-07
2815.0,9.111e-08
2820.0,2.628e-09
2825.0,5.151e-06
2830.0,4.556e-05
2835.0,8.12e-09
2840.0,2.558e-06
2845.0,0.0002221
2850.0,1.093e-05
2855.0,2.728e-06
2860.0,9.936e-05
2865.0,0.0004809
2870.0,3.128e-05
2875.0,0.0008719
2880.0,0.0004977
2885.0,0.0009147
2890.0,0.0003586
2895.0,0.003654
2900.0,0.001242
2905.0,0.0002293
2910.0,0.003601
2915.0,0.001896
2920.0,0.00378
2925.0,0.001542
2930.0,0.00696
2935.0,0.007605
2940.0,0.00232
2945.0,0.002113
2950.0,0.006341
2955.0,0.002849
2960.0,0.005573
2965.0,0.008328
2970.0,0.0005492
2975.0,0.001291
2980.0,0.001985
2985.0,0.007969
2990.0,0.01078
2995.0,0.005142
3000.0,0.008496
3005.0,0.003606
3010.0,0.007484
3015.0,0.006474
3020.0,0.001035
3025.0,0.008096
3030.0,0.006687
3035.0,0.00301
3040.0,0.002556
3045.0,0.004994
3050.0,0.001421
3055.0,0.0004918
3060.0,0.006791
3065.0,0.003585
3070.0,0.002367
3075.0,0.006529
3080.0,0.004109
3085.0,0.002347
3090.0,0.003091
3095.0,0.001017
3100.0,0.00498
3105.0,0.001262
3110.0,0.001287
3115.0,0.002866
3120.0,0.01031
3125.0,0.003536
3130.0,0.006099
3135.0,0.01163
3140.0,0.00388
3145.0,0.003741
3150.0,0.007204
3155.0,0.006088
3160.0,0.009592
3165.0,0.01341
3170.0,0.01212
3175.0,0.009365
3180.0,0.0104
3185.0,0.008594
3190.0,0.004612
3195.0,0.003446
3200.0,0.0006991
3205.0,0.0005457
3210.0,0.000265
3215.0,0.0008293
3220.0,0.002175
3225.0,0.0003235
3230.0,0.0005463
3235.0,0.007653
3240.0,0.004427
3245.0,0.0009719
3250.0,0.003013
3255.0,0.009883
3260.0,0.001621
3265.0,0.00293
3270.0,0.001628
3275.0,0.006343
3280.0,0.00331
3285.0,0.01066
3290.0,0.008724
3295.0,0.001522
3300.0,0.002052
3305.0,0.004386
3310.0,0.004442
3315.0,5.178e-05
3320.0,0.0001313
3325.0,0.004124
3330.0,0.004773
3335.0,0.009017
3340.0,0.003785
3345.0,0.003953
3350.0,0.008013
3355.0,0.004145
3360.0,0.005542
3365.0,0.007176
3370.0,0.004457
3375.0,0.008364
3380.0,0.00555
3385.0,0.007489
3390.0,0.009562
3395.0,0.009164
3400.0,0.01143
3405.0,0.004874
3410.0,0.007044
3415.0,0.007326
3420.0,0.01192
3425.0,0.009546
3430.0,0.008517
3435.0,0.01067
3440.0,0.008003
3445.0,0.01048
3450.0,0.01038
3455.0,0.008069
3460.0,0.01134
3465.0,0.009292
3470.0,0.01108
3475.0,0.01012
3480.0,0.01033
3485.0,0.01093
3490.0,0.009692
3495.0,0.011
3500.0,0.01077
3505.0,0.01069
3510.0,0.0108
3515.0,0.01042
3520.0,0.01085
3525.0,0.0103
3530.0,0.0101
3535.0,0.008799
3540.0,0.008476
3545.0,0.008854
3550.0,0.009568
3555.0,0.008458
3560.0,0.009734
3565.0,0.009749
3570.0,0.007857
3575.0,0.008134
3580.0,0.009229
3585.0,0.008469
3590.0,0.008688
3595.0,0.008779
3600.0,0.009229
3605.0,0.009305
3610.0,0.008671
3615.0,0.008595
3620.0,0.01018
3625.0,0.009153
3630.0,0.008942
3635.0,0.009178
3640.0,0.01001
3645.0,0.009345
3650.0,0.008985
3655.0,0.009565
3660.0,0.009527
3665.0,0.009043
3670.0,0.007287
3675.0,0.004863
3680.0,0.007586
3685.0,0.008403
3690.0,0.008631
3695.0,0.008838
3700.0,0.009332
3705.0,0.009247
3710.0,0.008272
3715.0,0.008151
3720.0,0.009014
3725.0,0.009214
3730.0,0.008193
3735.0,0.007603
3740.0,0.007729
3745.0,0.008762
3750.0,0.008105
3755.0,0.007903
3760.0,0.007877
3765.0,0.007612
3770.0,0.008028
3775.0,0.007939
3780.0,0.008334
3785.0,0.007788
3790.0,0.007
3795.0,0.007791
3800.0,0.008554
3805.0,0.008131
3810.0,0.007398
3815.0,0.006982
3820.0,0.008362
3825.0,0.008229
3830.0,0.008311
3835.0,0.006932
3840.0,0.007876
3845.0,0.007725
3850.0,0.007763
3855.0,0.007494
3860.0,0.007114
3865.0,0.007147
3870.0,0.006629
3875.0,0.006176
3880.0,0.006013
3885.0,0.006159
3890.0,0.006225
3895.0,0.006668
3900.0,0.006973
3905.0,0.006953
3910.0,0.006397
3915.0,0.00627
3920.0,0.006256
3925.0,0.006171
3930.0,0.006321
3935.0,0.006514
3940.0,0.006572
3945.0,0.006645
3950.0,0.006705
3955.0,0.006748
3960.0,0.00679
3965.0,0.006829
3970.0,0.006766
3975.0,0.006625
3980.0,0.006547
3985.0,0.006549
3990.0,0.006474
3995.0,0.006358
4000.0,0.00612
