interpolation:linear
wavelength,value
280.0,2.0659999999999998e-23
280.5,7.204999999999999e-22
281.0,3.932e-21
281.5,1.323e-19
282.0,1.088e-18
282.5,4.214e-18
283.0,1.4e-17
283.5,2.2e-17
284.0,3.456e-16
284.5,1.005e-15
285.0,6.007e-16
285.5,3.26e-15
286.0,1.34e-14
286.5,6.288e-14
287.0,1.846e-13
287.5,7.329e-13
288.0,8.953e-12
288.5,1.892e-11
289.0,4.227e-11
289.5,1.145e-10
290.0,2.992e-10
290.5,5.856e-10
291.0,1.212e-09
291.5,3.371e-09
292.0,6.463e-09
292.5,8.594e-09
293.0,1.74e-08
293.5,3.984e-08
294.0,5.946e-08
294.5,1.193e-08
295.0,2e-08
295.5,3.124e-08
296.0,5.422e-08
296.5,6.843e-08
297.0,8.516e-08
297.5,2.018e-07
298.0,2.862e-07
298.5,2.654e-07
299.0,5.406e-07
299.5,7.811e-07
300.0,7.95e-07
300.5,1.064e-06
301.0,1.694e-06
301.5,2.406e-06
302.0,1.941e-06
302.5,2.335e-06
303.0,4.249e-06
303.5,5.374e-06
304.0,5.034e-06
304.5,7.544e-06
305.0,1.181e-05
305.5,1.4e-05
306.0,1.377e-05
306.5,1.767e-05
307.0,2.838e-05
307.5,4.137e-05
308.0,4.443e-05
308.5,5.527e-05
309.0,5.077e-05
309.5,5.584e-05
310.0,5.616e-05
310.5,9.138e-05
311.0,0.0001161
311.5,0.0001129
312.0,0.0001189
312.5,0.0001516
313.0,0.0001692
313.5,0.00016
314.0,0.0002144
314.5,0.0002212
315.0,0.0003007
315.5,0.0002297
316.0,0.0002339
316.5,0.0003857
317.0,0.0004778
317.5,0.0004778
318.0,0.0004104
318.5,0.0006174
319.0,0.0008101
319.5,0.0005625
320.0,0.0006638
320.5,0.001017
321.0,0.001096
321.5,0.001072
322.0,0.0009299
322.5,0.0008174
323.0,0.0009301
323.5,0.002333
324.0,0.002834
324.5,0.002596
325.0,0.001199
325.5,0.001725
326.0,0.004024
326.5,0.004576
327.0,0.004352
327.5,0.003958
328.0,0.002958
328.5,0.003838
329.0,0.005513
329.5,0.00665
330.0,0.006386
330.5,0.004409
331.0,0.004305
331.5,0.004816
332.0,0.006147
332.5,0.006542
333.0,0.006254
333.5,0.005012
334.0,0.00503
334.5,0.006665
335.0,0.006768
335.5,0.008436
336.0,0.005836
336.5,0.006165
337.0,0.004777
337.5,0.005816
338.0,0.006348
338.5,0.007934
339.0,0.007916
339.5,0.007575
340.0,0.008245
340.5,0.007514
341.0,0.00786
341.5,0.007322
342.0,0.008786
342.5,0.008254
343.0,0.008998
343.5,0.008422
344.0,0.005797
344.5,0.006217
345.0,0.00837
345.5,0.008607
346.0,0.007351
346.5,0.00835
347.0,0.008898
347.5,0.007176
348.0,0.008259
348.5,0.008302
349.0,0.007721
349.5,0.007638
350.0,0.009457
350.5,0.009975
351.0,0.008872
351.5,0.008523
352.0,0.009224
352.5,0.007242
353.0,0.009157
353.5,0.009817
354.0,0.01021
354.5,0.01036
355.0,0.01031
355.5,0.009326
356.0,0.009772
356.5,0.008347
357.0,0.006895
357.5,0.008449
358.0,0.006703
358.5,0.005731
359.0,0.008011
359.5,0.01018
360.0,0.0108
360.5,0.008648
361.0,0.007895
361.5,0.009101
362.0,0.007876
362.5,0.01091
363.0,0.009799
363.5,0.009027
364.0,0.01104
364.5,0.009439
365.0,0.009613
365.5,0.01207
366.0,0.01279
366.5,0.01203
367.0,0.01172
367.5,0.01216
368.0,0.01065
368.5,0.01074
369.0,0.0116
369.5,0.01237
370.0,0.0132
370.5,0.01024
371.0,0.01095
371.5,0.0137
372.0,0.009098
372.5,0.01091
373.0,0.0111
373.5,0.007224
374.0,0.0105
374.5,0.008697
375.0,0.008456
375.5,0.01263
376.0,0.01047
376.5,0.01085
377.0,0.0115
377.5,0.01345
378.0,0.01459
378.5,0.01379
379.0,0.01138
379.5,0.0104
380.0,0.01081
380.5,0.0131
381.0,0.01313
381.5,0.01041
382.0,0.009248
382.5,0.007886
383.0,0.007303
383.5,0.007036
384.0,0.007763
384.5,0.01142
385.0,0.01133
385.5,0.01055
386.0,0.00904
386.5,0.01188
387.0,0.009872
387.5,0.01109
388.0,0.01024
388.5,0.01013
389.0,0.01093
389.5,0.01324
390.0,0.0133
390.5,0.01224
391.0,0.01441
391.5,0.0147
392.0,0.01238
392.5,0.01109
393.0,0.006173
393.5,0.004488
394.0,0.009134
394.5,0.01162
395.0,0.01418
395.5,0.0144
396.0,0.01249
396.5,0.007305
397.0,0.005484
397.5,0.01116
398.0,0.01563
398.5,0.01616
399.0,0.0175
399.5,0.01745
400.0,0.01812
401.0,0.0179
402.0,0.01889
403.0,0.01795
404.0,0.01768
405.0,0.01768
406.0,0.0174
407.0,0.01711
408.0,0.01777
409.0,0.01902
410.0,0.01662
411.0,0.01801
412.0,0.01936
413.0,0.01889
414.0,0.01912
415.0,0.01917
416.0,0.0195
417.0,0.01902
418.0,0.01867
419.0,0.01893
420.0,0.01885
421.0,0.01971
422.0,0.01873
423.0,0.01827
424.0,0.01931
425.0,0.01926
426.0,0.01877
427.0,0.01843
428.0,0.01797
429.0,0.01704
430.0,0.01492
431.0,0.01478
432.0,0.01906
433.0,0.01916
434.0,0.01779
435.0,0.0186
436.0,0.02096
437.0,0.02067
438.0,0.0188
439.0,0.0194
440.0,0.01999
441.0,0.02067
442.0,0.02214
443.0,0.02156
444.0,0.02205
445.0,0.02162
446.0,0.02068
447.0,0.02238
448.0,0.02271
449.0,0.02276
450.0,0.02337
451.0,0.02423
452.0,0.02336
453.0,0.02199
454.0,0.02298
455.0,0.02308
456.0,0.02359
457.0,0.02392
458.0,0.02302
459.0,0.02281
460.0,0.02278
461.0,0.02326
462.0,0.02345
463.0,0.02334
464.0,0.02305
465.0,0.02284
466.0,0.02311
467.0,0.02267
468.0,0.02289
469.0,0.02295
470.0,0.02218
471.0,0.02216
472.0,0.02336
473.0,0.02307
474.0,0.02307
475.0,0.02319
476.0,0.02237
477.0,0.0223
478.0,0.02281
479.0,0.02256
480.0,0.02251
481.0,0.02286
482.0,0.02297
483.0,0.02274
484.0,0.02235
485.0,0.0214
486.0,0.01879
487.0,0.01975
488.0,0.02167
489.0,0.0217
490.0,0.0228
491.0,0.02238
492.0,0.02113
493.0,0.02183
494.0,0.02206
495.0,0.02225
496.0,0.02236
497.0,0.02263
498.0,0.02147
499.0,0.0216
500.0,0.02083
501.0,0.0203
502.0,0.01982
503.0,0.02044
504.0,0.0197
505.0,0.02049
506.0,0.02116
507.0,0.02017
508.0,0.01964
509.0,0.0203
510.0,0.02028
511.0,0.0209
512.0,0.02116
513.0,0.02001
514.0,0.01985
515.0,0.01962
516.0,0.01954
517.0,0.01735
518.0,0.01823
519.0,0.0191
520.0,0.01975
521.0,0.01989
522.0,0.01983
523.0,0.01942
524.0,0.01997
525.0,0.02006
526.0,0.01907
527.0,0.01783
528.0,0.01875
529.0,0.01965
530.0,0.01928
531.0,0.01948
532.0,0.01876
533.0,0.0182
534.0,0.01876
535.0,0.01923
536.0,0.01947
537.0,0.01875
538.0,0.01909
539.0,0.01891
540.0,0.01806
541.0,0.01801
542.0,0.01852
543.0,0.01838
544.0,0.01857
545.0,0.01851
546.0,0.01849
547.0,0.01856
548.0,0.01839
549.0,0.01847
550.0,0.01868
551.0,0.01847
552.0,0.0186
553.0,0.01825
554.0,0.01867
555.0,0.01867
556.0,0.01838
557.0,0.01774
558.0,0.01751
559.0,0.01708
560.0,0.01719
561.0,0.0173
562.0,0.01705
563.0,0.01739
564.0,0.01681
565.0,0.01657
566.0,0.01624
567.0,0.01642
568.0,0.01599
569.0,0.01535
570.0,0.01529
571.0,0.01519
572.0,0.01532
573.0,0.01541
574.0,0.01526
575.0,0.01489
576.0,0.01473
577.0,0.01493
578.0,0.01483
579.0,0.01512
580.0,0.01576
581.0,0.01614
582.0,0.01669
583.0,0.01694
584.0,0.01723
585.0,0.01691
586.0,0.01661
587.0,0.01685
588.0,0.01612
589.0,0.01328
590.0,0.0138
591.0,0.01526
592.0,0.01463
593.0,0.01528
594.0,0.01502
595.0,0.01429
596.0,0.0158
597.0,0.01512
598.0,0.01537
599.0,0.01554
600.0,0.01564
601.0,0.01565
602.0,0.01562
603.0,0.01602
604.0,0.0164
605.0,0.01644
606.0,0.01646
607.0,0.01674
608.0,0.01668
609.0,0.01684
610.0,0.01686
611.0,0.01708
612.0,0.01716
613.0,0.01707
614.0,0.01695
615.0,0.01743
616.0,0.01695
617.0,0.01699
618.0,0.01772
619.0,0.0176
620.0,0.01774
621.0,0.01779
622.0,0.0176
623.0,0.01733
624.0,0.01699
625.0,0.0169
626.0,0.01706
627.0,0.01697
628.0,0.01275
629.0,0.01524
630.0,0.01478
631.0,0.01616
632.0,0.01631
633.0,0.01728
634.0,0.01758
635.0,0.01815
636.0,0.01816
637.0,0.01872
638.0,0.01926
639.0,0.01925
640.0,0.01935
641.0,0.01953
642.0,0.01969
643.0,0.02006
644.0,0.0202
645.0,0.02005
646.0,0.01926
647.0,0.01767
648.0,0.01797
649.0,0.01723
650.0,0.019
651.0,0.02022
652.0,0.01799
653.0,0.02019
654.0,0.02018
655.0,0.01846
656.0,0.01686
657.0,0.01766
658.0,0.02017
659.0,0.02081
660.0,0.021
661.0,0.02163
662.0,0.02208
663.0,0.02175
664.0,0.02207
665.0,0.02218
666.0,0.02235
667.0,0.02247
668.0,0.02271
669.0,0.02315
670.0,0.02318
671.0,0.0233
672.0,0.02322
673.0,0.02369
674.0,0.02371
675.0,0.02361
676.0,0.02388
677.0,0.02375
678.0,0.02393
679.0,0.02364
680.0,0.02389
681.0,0.02375
682.0,0.02375
683.0,0.0237
684.0,0.02353
685.0,0.02394
686.0,0.02356
687.0,0.006627
688.0,0.008258
689.0,0.008319
690.0,0.009302
691.0,0.01112
692.0,0.01352
693.0,0.01392
694.0,0.01495
695.0,0.01784
696.0,0.01803
697.0,0.02296
698.0,0.02177
699.0,0.01885
700.0,0.0187
701.0,0.01749
702.0,0.0181
703.0,0.01921
704.0,0.02124
705.0,0.02091
706.0,0.02146
707.0,0.0217
708.0,0.02206
709.0,0.0231
710.0,0.02191
711.0,0.02247
712.0,0.0233
713.0,0.02203
714.0,0.02281
715.0,0.02108
716.0,0.02031
717.0,0.0114
718.0,0.01087
719.0,0.01016
720.0,0.009675
721.0,0.01307
722.0,0.01719
723.0,0.01517
724.0,0.01232
725.0,0.01154
726.0,0.01134
727.0,0.0139
728.0,0.01063
729.0,0.01278
730.0,0.01268
731.0,0.0118
732.0,0.01489
733.0,0.01777
734.0,0.01943
735.0,0.01868
736.0,0.01765
737.0,0.01825
738.0,0.0215
739.0,0.02109
740.0,0.02259
741.0,0.02284
742.0,0.02353
743.0,0.02417
744.0,0.02438
745.0,0.02488
746.0,0.02501
747.0,0.02521
748.0,0.02522
749.0,0.02499
750.0,0.02501
751.0,0.02476
752.0,0.02494
753.0,0.02513
754.0,0.02516
755.0,0.02496
756.0,0.02505
757.0,0.02506
758.0,0.02463
759.0,0.02109
760.0,0.001234
761.0,0.0006585
762.0,0.003622
763.0,0.001841
764.0,0.002723
765.0,0.003583
766.0,0.004435
767.0,0.006537
768.0,0.01247
769.0,0.01538
770.0,0.02025
771.0,0.02293
772.0,0.02388
773.0,0.02429
774.0,0.02439
775.0,0.02437
776.0,0.02477
777.0,0.02449
778.0,0.02431
779.0,0.02435
780.0,0.02428
781.0,0.02434
782.0,0.02454
783.0,0.02417
784.0,0.02439
785.0,0.02406
786.0,0.02403
787.0,0.02167
788.0,0.02106
789.0,0.02085
790.0,0.0185
791.0,0.02026
792.0,0.02055
793.0,0.02004
794.0,0.02278
795.0,0.02257
796.0,0.01847
797.0,0.01907
798.0,0.02235
799.0,0.02157
800.0,0.01984
801.0,0.01921
802.0,0.0191
803.0,0.01801
804.0,0.01884
805.0,0.01979
806.0,0.02234
807.0,0.0217
808.0,0.02144
809.0,0.01941
810.0,0.01917
811.0,0.01668
812.0,0.01508
813.0,0.01436
814.0,0.009975
815.0,0.01004
816.0,0.01005
817.0,0.009995
818.0,0.009557
819.0,0.0111
820.0,0.01171
821.0,0.0159
822.0,0.01407
823.0,0.005119
824.0,0.01238
825.0,0.01738
826.0,0.01314
827.0,0.01612
828.0,0.009412
829.0,0.01459
830.0,0.01426
831.0,0.01388
832.0,0.01295
833.0,0.01461
834.0,0.01368
835.0,0.01846
836.0,0.01535
837.0,0.01825
838.0,0.01638
839.0,0.01862
840.0,0.01969
841.0,0.0185
842.0,0.01958
843.0,0.0214
844.0,0.0204
845.0,0.02176
846.0,0.02231
847.0,0.02221
848.0,0.0214
849.0,0.02088
850.0,0.0199
851.0,0.02028
852.0,0.02077
853.0,0.02043
854.0,0.01731
855.0,0.01948
856.0,0.02115
857.0,0.02207
858.0,0.02173
859.0,0.02222
860.0,0.02246
861.0,0.02227
862.0,0.02274
863.0,0.02325
864.0,0.02217
865.0,0.02205
866.0,0.01983
867.0,0.02072
868.0,0.02258
869.0,0.02216
870.0,0.02282
871.0,0.02248
872.0,0.02247
873.0,0.02244
874.0,0.02219
875.0,0.02168
876.0,0.0219
877.0,0.02212
878.0,0.02231
879.0,0.02198
880.0,0.02146
881.0,0.02083
882.0,0.02099
883.0,0.02148
884.0,0.02121
885.0,0.02116
886.0,0.01906
887.0,0.0204
888.0,0.02004
889.0,0.02139
890.0,0.01994
891.0,0.0207
892.0,0.01788
893.0,0.01666
894.0,0.01337
895.0,0.01035
896.0,0.009204
897.0,0.007055
898.0,0.00784
899.0,0.004286
900.0,0.007903
901.0,0.004591
902.0,0.005435
903.0,0.006074
904.0,0.01228
905.0,0.01103
906.0,0.009879
907.0,0.00543
908.0,0.006586
909.0,0.006781
910.0,0.004358
911.0,0.006329
912.0,0.007942
913.0,0.004513
914.0,0.006059
915.0,0.004559
916.0,0.00476
917.0,0.006319
918.0,0.004371
919.0,0.006914
920.0,0.009727
921.0,0.009354
922.0,0.006886
923.0,0.00929
924.0,0.006376
925.0,0.005947
926.0,0.006052
927.0,0.007424
928.0,0.002688
929.0,0.002082
930.0,0.001305
931.0,0.0012
932.0,0.0008294
933.0,0.0006637
934.0,0.0003591
935.0,0.0006742
936.0,0.000417
937.0,0.0004208
938.0,0.0005157
939.0,0.00113
940.0,0.001445
941.0,0.0009949
942.0,0.001163
943.0,0.0007373
944.0,0.0007926
945.0,0.001017
946.0,0.0004948
947.0,0.001003
948.0,0.0007388
949.0,0.001406
950.0,0.0003579
951.0,0.00138
952.0,0.0007234
953.0,0.0009369
954.0,0.001166
955.0,0.00108
956.0,0.001108
957.0,0.0007212
958.0,0.001721
959.0,0.00114
960.0,0.001363
961.0,0.001761
962.0,0.001644
963.0,0.002477
964.0,0.002116
965.0,0.002145
966.0,0.002644
967.0,0.002745
968.0,0.008868
969.0,0.006352
970.0,0.006976
971.0,0.009015
972.0,0.008619
973.0,0.004653
974.0,0.004424
975.0,0.005489
976.0,0.004433
977.0,0.008364
978.0,0.005583
979.0,0.006713
980.0,0.006455
981.0,0.009584
982.0,0.008417
983.0,0.007446
984.0,0.01246
985.0,0.00787
986.0,0.01536
987.0,0.0123
988.0,0.01322
989.0,0.01658
990.0,0.01207
991.0,0.01651
992.0,0.01685
993.0,0.01405
994.0,0.01719
995.0,0.01766
996.0,0.01713
997.0,0.01729
998.0,0.01703
999.0,0.01713
1000.0,0.01659
1001.0,0.01735
1002.0,0.01402
1003.0,0.01699
1004.0,0.01557
1005.0,0.01598
1006.0,0.01653
1007.0,0.0168
1008.0,0.01639
1009.0,0.01582
1010.0,0.01567
1011.0,0.01664
1012.0,0.01635
1013.0,0.01693
1014.0,0.01681
1015.0,0.01669
1016.0,0.01647
1017.0,0.01633
1018.0,0.0167
1019.0,0.01516
1020.0,0.01649
1021.0,0.01663
1022.0,0.01612
1023.0,0.01637
1024.0,0.0151
1025.0,0.01656
1026.0,0.01607
1027.0,0.01636
1028.0,0.01617
1029.0,0.01572
1030.0,0.01622
1031.0,0.01613
1032.0,0.01608
1033.0,0.01591
1034.0,0.01589
1035.0,0.01596
1036.0,0.01583
1037.0,0.01567
1038.0,0.01567
1039.0,0.01556
1040.0,0.01547
1041.0,0.0154
1042.0,0.01528
1043.0,0.01515
1044.0,0.01511
1045.0,0.01482
1046.0,0.01457
1047.0,0.01459
1048.0,0.01456
1049.0,0.01439
1050.0,0.0142
1051.0,0.01403
1052.0,0.01384
1053.0,0.01355
1054.0,0.0134
1055.0,0.0132
1056.0,0.01292
1057.0,0.01271
1058.0,0.01222
1059.0,0.01202
1060.0,0.01191
1061.0,0.01178
1062.0,0.01171
1063.0,0.01138
1064.0,0.01158
1065.0,0.01104
1066.0,0.01116
1067.0,0.01125
1068.0,0.01072
1069.0,0.0107
1070.0,0.01111
1071.0,0.01183
1072.0,0.01127
1073.0,0.01114
1074.0,0.01237
1075.0,0.009865
1076.0,0.01239
1077.0,0.01121
1078.0,0.01015
1079.0,0.01272
1080.0,0.01076
1081.0,0.009472
1082.0,0.01154
1083.0,0.01193
1084.0,0.009384
1085.0,0.01112
1086.0,0.008316
1087.0,0.009411
1088.0,0.01176
1089.0,0.009174
1090.0,0.008551
1091.0,0.01086
1092.0,0.01114
1093.0,0.00604
1094.0,0.009539
1095.0,0.005872
1096.0,0.004985
1097.0,0.01109
1098.0,0.004922
1099.0,0.004815
1100.0,0.003535
1101.0,0.004212
1102.0,0.003406
1103.0,0.002696
1104.0,0.003189
1105.0,0.00378
1106.0,0.001338
1107.0,0.00362
1108.0,0.001648
1109.0,0.001692
1110.0,0.002408
1111.0,0.0007294
1112.0,0.001884
1113.0,0.0005002
1114.0,0.000545
1115.0,0.0004181
1116.0,0.0002871
1117.0,0.0001023
1118.0,0.0003125
1119.0,0.0001509
1120.0,0.0001891
1121.0,0.000251
1122.0,0.0001039
1123.0,0.0001692
1124.0,0.0001423
1125.0,0.0001855
1126.0,6.3e-05
1127.0,0.0002078
1128.0,0.0001225
1129.0,0.0001297
1130.0,8.453e-05
1131.0,0.0003948
1132.0,0.0003075
1133.0,0.0001915
1134.0,4.771e-05
1135.0,1.788e-05
1136.0,0.0001574
1137.0,0.0003787
1138.0,0.0002652
1139.0,0.0004271
1140.0,0.0003378
1141.0,0.0002503
1142.0,0.0002893
1143.0,0.0004196
1144.0,0.0001404
1145.0,0.0001774
1146.0,0.0001907
1147.0,6.558e-05
1148.0,0.0003557
1149.0,0.0002765
1150.0,0.0001491
1151.0,0.000253
1152.0,0.0003165
1153.0,0.0003203
1154.0,0.0001678
1155.0,0.0004439
1156.0,0.0003974
1157.0,0.0005778
1158.0,0.000556
1159.0,0.000627
1160.0,0.0006135
1161.0,0.001338
1162.0,0.001546
1163.0,0.003324
1164.0,0.002548
1165.0,0.001544
1166.0,0.002486
1167.0,0.002752
1168.0,0.002873
1169.0,0.003357
1170.0,0.004618
1171.0,0.003774
1172.0,0.005619
1173.0,0.004093
1174.0,0.001599
1175.0,0.005009
1176.0,0.008205
1177.0,0.005987
1178.0,0.002829
1179.0,0.007775
1180.0,0.00563
1181.0,0.004586
1182.0,0.001464
1183.0,0.004948
1184.0,0.004769
1185.0,0.003615
1186.0,0.006146
1187.0,0.004411
1188.0,0.001397
1189.0,0.0044
1190.0,0.006465
1191.0,0.004298
1192.0,0.006845
1193.0,0.006581
1194.0,0.006441
1195.0,0.004688
1196.0,0.003753
1197.0,0.006621
1198.0,0.006134
1199.0,0.002595
1200.0,0.005547
1201.0,0.004072
1202.0,0.005772
1203.0,0.004275
1204.0,0.004519
1205.0,0.007039
1206.0,0.00882
1207.0,0.005103
1208.0,0.005847
1209.0,0.005971
1210.0,0.007579
1211.0,0.006327
1212.0,0.003975
1213.0,0.007354
1214.0,0.004676
1215.0,0.004268
1216.0,0.008036
1217.0,0.007116
1218.0,0.007932
1219.0,0.007395
1220.0,0.007851
1221.0,0.008772
1222.0,0.007982
1223.0,0.007658
1224.0,0.006871
1225.0,0.007937
1226.0,0.009052
1227.0,0.006035
1228.0,0.009902
1229.0,0.008856
1230.0,0.00843
1231.0,0.01038
1232.0,0.01029
1233.0,0.007218
1234.0,0.01108
1235.0,0.0104
1236.0,0.01097
1237.0,0.009648
1238.0,0.01094
1239.0,0.01081
1240.0,0.01103
1241.0,0.01023
1242.0,0.01081
1243.0,0.01081
1244.0,0.01054
1245.0,0.0108
1246.0,0.01079
1247.0,0.01042
1248.0,0.01003
1249.0,0.01041
1250.0,0.01003
1251.0,0.009304
1252.0,0.0101
1253.0,0.008649
1254.0,0.007811
1255.0,0.009779
1256.0,0.007202
1257.0,0.006747
1258.0,0.008519
1259.0,0.005353
1260.0,0.005691
1261.0,0.003126
1262.0,0.002268
1263.0,0.002264
1264.0,0.001098
1265.0,0.002244
1266.0,0.001486
1267.0,0.001961
1268.0,0.001229
1269.0,0.0002119
1270.0,0.001747
1271.0,0.003412
1272.0,0.003505
1273.0,0.003259
1274.0,0.003668
1275.0,0.003974
1276.0,0.00455
1277.0,0.005358
1278.0,0.006501
1279.0,0.006602
1280.0,0.006689
1281.0,0.007119
1282.0,0.007824
1283.0,0.008164
1284.0,0.008456
1285.0,0.00871
1286.0,0.009251
1287.0,0.008419
1288.0,0.008734
1289.0,0.00614
1290.0,0.008623
1291.0,0.009207
1292.0,0.00529
1293.0,0.008422
1294.0,0.007991
1295.0,0.006191
1296.0,0.004937
1297.0,0.004132
1298.0,0.00596
1299.0,0.008084
1300.0,0.003418
1301.0,0.003342
1302.0,0.005954
1303.0,0.004234
1304.0,0.001517
1305.0,0.005319
1306.0,0.00445
1307.0,0.002081
1308.0,0.003645
1309.0,0.003926
1310.0,0.00203
1311.0,0.003659
1312.0,0.003057
1313.0,0.002136
1314.0,0.00106
1315.0,0.001028
1316.0,0.003036
1317.0,0.003056
1318.0,0.003735
1319.0,0.001198
1320.0,0.0009318
1321.0,0.001757
1322.0,0.001114
1323.0,0.0003792
1324.0,0.001201
1325.0,0.00181
1326.0,0.001209
1327.0,0.0009108
1328.0,0.0003973
1329.0,0.0001582
1330.0,0.0002575
1331.0,0.0001134
1332.0,0.0001103
1333.0,0.0001631
1334.0,0.0002064
1335.0,0.0002473
1336.0,0.0001611
1337.0,0.0001513
1338.0,0.0001509
1339.0,0.0001497
1340.0,0.0001518
1341.0,0.0001252
1342.0,0.000134
1343.0,8.53e-05
1344.0,5.095e-05
1345.0,7.305e-05
1346.0,3.603e-05
1347.0,3.65e-05
1348.0,2.353e-06
1349.0,8.441e-06
1350.0,8.751e-06
1351.0,2.115e-06
1352.0,5.691e-07
1353.0,2.896e-08
1354.0,9.955e-08
1355.0,8.017e-10
1356.0,1.403e-08
1357.0,2.132e-08
1358.0,9.413e-10
1359.0,1.186e-10
1360.0,4.286e-10
1361.0,4.795e-13
1362.0,1.312e-15
1363.0,5.764e-10
1364.0,2.38e-10
1365.0,4.58e-16
1366.0,2.499e-09
1367.0,1.02e-09
1368.0,3.538e-18
1369.0,8.772e-11
1370.0,4.32e-11
1371.0,2.449e-12
1372.0,5.533e-10
1373.0,1.115e-08
1374.0,5.171e-08
1375.0,9.379e-08
1376.0,8.412e-08
1377.0,3.842e-08
1378.0,3.757e-07
1379.0,1.606e-08
1380.0,2.308e-08
1381.0,6.011e-10
1382.0,4.852e-10
1383.0,7.255e-12
1384.0,9.513e-11
1385.0,4.549e-10
1386.0,4.279e-10
1387.0,5.176e-08
1388.0,1.018e-09
1389.0,1.748e-07
1390.0,1.5e-07
1391.0,9.977e-08
1392.0,6.468e-09
1393.0,3.426e-08
1394.0,1.766e-08
1395.0,1.294e-10
1396.0,6.255e-13
1397.0,1.349e-08
1398.0,3.99e-07
1399.0,2.524e-07
1400.0,2.675e-13
1401.0,1.11e-12
1402.0,6.993e-07
1403.0,8.759e-07
1404.0,2.661e-07
1405.0,6.132e-11
1406.0,6.879e-07
1407.0,6.063e-08
1408.0,5.598e-07
1409.0,1.866e-07
1410.0,1.494e-07
1411.0,7.534e-07
1412.0,1.017e-06
1413.0,1.058e-05
1414.0,1.167e-07
1415.0,5.571e-08
1416.0,1.749e-05
1417.0,5.164e-06
1418.0,5.848e-06
1419.0,9.001e-07
1420.0,3.554e-06
1421.0,3.834e-06
1422.0,2.248e-05
1423.0,4.313e-06
1424.0,8.096e-06
1425.0,1.183e-05
1426.0,1.353e-05
1427.0,2.518e-05
1428.0,1.762e-06
1429.0,1.854e-05
1430.0,3.2e-05
1431.0,3.518e-05
1432.0,1.37e-06
1433.0,2.207e-05
1434.0,1.11e-05
1435.0,1.076e-05
1436.0,2.119e-05
1437.0,1.62e-05
1438.0,6.689e-06
1439.0,2.881e-05
1440.0,2.151e-05
1441.0,1.608e-05
1442.0,1.782e-05
1443.0,2.273e-05
1444.0,3.166e-05
1445.0,2.432e-05
1446.0,1.078e-05
1447.0,1.7e-05
1448.0,6.027e-05
1449.0,5.178e-05
1450.0,1.253e-05
1451.0,4.933e-06
1452.0,3.046e-05
1453.0,4.015e-05
1454.0,7.147e-05
1455.0,3.254e-05
1456.0,4.338e-05
1457.0,5.93e-05
1458.0,7.464e-05
1459.0,8.731e-05
1460.0,4.342e-05
1461.0,4.382e-05
1462.0,6.588e-05
1463.0,2.051e-05
1464.0,7.99e-05
1465.0,4.758e-05
1466.0,3.077e-05
1467.0,1.574e-05
1468.0,3.642e-05
1469.0,4.522e-05
1470.0,2.17e-05
1471.0,7.698e-06
1472.0,2.063e-05
1473.0,3.207e-05
1474.0,4.865e-05
1475.0,9.874e-05
1476.0,3.203e-05
1477.0,3.187e-05
1478.0,2.998e-05
1479.0,5.944e-05
1480.0,2.73e-05
1481.0,5.516e-05
1482.0,2.684e-05
1483.0,7.525e-05
1484.0,8.24e-05
1485.0,6.434e-05
1486.0,5.891e-05
1487.0,2.587e-05
1488.0,5.046e-05
1489.0,0.000131
1490.0,0.0002313
1491.0,0.0002787
1492.0,0.0001041
1493.0,0.0002228
1494.0,0.000551
1495.0,0.0002979
1496.0,0.0002102
1497.0,0.001217
1498.0,0.0006602
1499.0,0.0007268
1500.0,0.002299
1501.0,0.002131
1502.0,0.001836
1503.0,0.0007529
1504.0,0.0001589
1505.0,0.0007113
1506.0,0.002846
1507.0,0.002585
1508.0,0.002529
1509.0,0.0009332
1510.0,0.003467
1511.0,0.002462
1512.0,0.003615
1513.0,0.001755
1514.0,0.001487
1515.0,0.004085
1516.0,0.003541
1517.0,0.002338
1518.0,0.003064
1519.0,0.002138
1520.0,0.003128
1521.0,0.006014
1522.0,0.004022
1523.0,0.006286
1524.0,0.004815
1525.0,0.003333
1526.0,0.003361
1527.0,0.004156
1528.0,0.00573
1529.0,0.004918
1530.0,0.003832
1531.0,0.004619
1532.0,0.006423
1533.0,0.006815
1534.0,0.006785
1535.0,0.00613
1536.0,0.006464
1537.0,0.006227
1538.0,0.006773
1539.0,0.006404
1540.0,0.006781
1541.0,0.006624
1542.0,0.006282
1543.0,0.006785
1544.0,0.006521
1545.0,0.006997
1546.0,0.006279
1547.0,0.006638
1548.0,0.00667
1549.0,0.007025
1550.0,0.006818
1551.0,0.006654
1552.0,0.006523
1553.0,0.006816
1554.0,0.006569
1555.0,0.006801
1556.0,0.006677
1557.0,0.006845
1558.0,0.006824
1559.0,0.006747
1560.0,0.006706
1561.0,0.006788
1562.0,0.006525
1563.0,0.006467
1564.0,0.006421
1565.0,0.006799
1566.0,0.006494
1567.0,0.006585
1568.0,0.006422
1569.0,0.006731
1570.0,0.006706
1571.0,0.006701
1572.0,0.006672
1573.0,0.006482
1574.0,0.006101
1575.0,0.005943
1576.0,0.005451
1577.0,0.005238
1578.0,0.005307
1579.0,0.004985
1580.0,0.005184
1581.0,0.005132
1582.0,0.005138
1583.0,0.00503
1584.0,0.005817
1585.0,0.006039
1586.0,0.005882
1587.0,0.005732
1588.0,0.00617
1589.0,0.006044
1590.0,0.005947
1591.0,0.006226
1592.0,0.006095
1593.0,0.006478
1594.0,0.006307
1595.0,0.006361
1596.0,0.006049
1597.0,0.005849
1598.0,0.006432
1599.0,0.006409
1600.0,0.006514
1601.0,0.006219
1602.0,0.006048
1603.0,0.006485
1604.0,0.006397
1605.0,0.006456
1606.0,0.006355
1607.0,0.006432
1608.0,0.006027
1609.0,0.006168
1610.0,0.006007
1611.0,0.006088
1612.0,0.00631
1613.0,0.006056
1614.0,0.006216
1615.0,0.006119
1616.0,0.00601
1617.0,0.005843
1618.0,0.006244
1619.0,0.005762
1620.0,0.006043
1621.0,0.005992
1622.0,0.006065
1623.0,0.006201
1624.0,0.005922
1625.0,0.005854
1626.0,0.005846
1627.0,0.006006
1628.0,0.005793
1629.0,0.00593
1630.0,0.005786
1631.0,0.005338
1632.0,0.005602
1633.0,0.004548
1634.0,0.005664
1635.0,0.004493
1636.0,0.00515
1637.0,0.00542
1638.0,0.003482
1639.0,0.005259
1640.0,0.003219
1641.0,0.004948
1642.0,0.005503
1643.0,0.00269
1644.0,0.005723
1645.0,0.00382
1646.0,0.002605
1647.0,0.005693
1648.0,0.002657
1649.0,0.004872
1650.0,0.00512
1651.0,0.002173
1652.0,0.004706
1653.0,0.005298
1654.0,0.002772
1655.0,0.005078
1656.0,0.004002
1657.0,0.004473
1658.0,0.005441
1659.0,0.005098
1660.0,0.005121
1661.0,0.005156
1662.0,0.004116
1663.0,0.005367
1664.0,0.005141
1665.0,0.002723
1666.0,0.0003131
1667.0,0.002749
1668.0,0.004665
1669.0,0.00483
1670.0,0.005291
1671.0,0.004676
1672.0,0.00507
1673.0,0.005276
1674.0,0.004213
1675.0,0.004458
1676.0,0.005001
1677.0,0.004368
1678.0,0.003506
1679.0,0.005156
1680.0,0.004633
1681.0,0.003498
1682.0,0.00503
1683.0,0.005192
1684.0,0.002157
1685.0,0.005148
1686.0,0.005112
1687.0,0.003543
1688.0,0.004764
1689.0,0.004871
1690.0,0.00444
1691.0,0.002375
1692.0,0.004093
1693.0,0.00514
1694.0,0.003664
1695.0,0.004723
1696.0,0.005056
1697.0,0.001617
1698.0,0.004489
1699.0,0.004611
1700.0,0.003801
1702.0,0.00444
1705.0,0.003522
1710.0,0.00315
1715.0,0.003434
1720.0,0.003619
1725.0,0.002225
1730.0,0.002851
1735.0,0.002343
1740.0,0.002382
1745.0,0.002481
1750.0,0.001701
1755.0,0.00178
1760.0,0.00145
1765.0,0.0009323
1770.0,0.0007949
1775.0,0.0004645
1780.0,0.0002395
1785.0,7.939e-05
1790.0,6.69e-05
1795.0,9.77e-06
1800.0,6.723e-06
1805.0,2.667e-06
1810.0,1.732e-06
1815.0,5.01e-07
1820.0,1.253e-07
1825.0,1.636e-07
1830.0,3.987e-10
1835.0,6.037e-10
1840.0,3.523e-12
1845.0,3.767e-10
1850.0,1.701e-10
1855.0,1.625e-11
1860.0,9.314e-10
1865.0,1.298e-09
1870.0,7.105e-15
1875.0,1.284e-14
1880.0,6.837e-09
1885.0,3.644e-09
1890.0,1.999e-08
1895.0,1.16e-08
1900.0,4.957e-11
1905.0,3.377e-11
1910.0,1.635e-09
1915.0,1.593e-09
1920.0,4.179e-08
1925.0,9.818e-08
1930.0,5.67e-08
1935.0,4.322e-07
1940.0,4.292e-07
1945.0,1.768e-06
1950.0,3.456e-06
1955.0,3.066e-06
1960.0,5.493e-06
1965.0,6.833e-05
1970.0,0.0001905
1975.0,0.0002546
1980.0,0.0001549
1985.0,0.000272
1990.0,0.0005752
1995.0,0.0005774
2000.0,0.0009447
2005.0,0.0004141
2010.0,0.001986
2015.0,0.0005458
2020.0,0.0009546
2025.0,0.001582
2030.0,0.001079
2035.0,0.001985
2040.0,0.001519
2045.0,0.001636
2050.0,0.002216
2055.0,0.001615
2060.0,0.001433
2065.0,0.001703
2070.0,0.001504
2075.0,0.0021
2080.0,0.002085
2085.0,0.002051
2090.0,0.002209
2095.0,0.001986
2100.0,0.001446
2105.0,0.001992
2110.0,0.001594
2115.0,0.002028
2120.0,0.00144
2125.0,0.001756
2130.0,0.00204
2135.0,0.002161
2140.0,0.00223
2145.0,0.002194
2150.0,0.001417
2155.0,0.001403
2160.0,0.001497
2165.0,0.001264
2170.0,0.001606
2175.0,0.00124
2180.0,0.001526
2185.0,0.0009805
2190.0,0.00144
2195.0,0.001328
2200.0,0.0003736
2205.0,0.0008923
2210.0,0.001718
2215.0,0.001253
2220.0,0.001361
2225.0,0.00117
2230.0,0.001192
2235.0,0.00102
2240.0,0.0009854
2245.0,0.000658
2250.0,0.0009635
2255.0,0.0004627
2260.0,0.0004148
2265.0,0.0006357
2270.0,0.0003105
2275.0,0.0002784
2280.0,0.0006056
2285.0,0.0002835
2290.0,0.0003033
2295.0,0.0002765
2300.0,0.0001462
2305.0,0.0001734
2310.0,0.0006532
2315.0,0.0001841
2320.0,6.527e-05
2325.0,0.0003777
2330.0,0.0002299
2335.0,0.0003084
2340.0,4.997e-05
2345.0,7.454e-05
2350.0,3.629e-05
2355.0,5.433e-05
2360.0,8.551e-05
2365.0,0.0001973
2370.0,3.302e-06
2375.0,4.602e-05
2380.0,9.038e-05
2385.0,1.359e-05
2390.0,2.078e-05
2395.0,2.959e-05
2400.0,3.898e-05
2405.0,3.894e-05
2410.0,3.644e-05
2415.0,4.541e-06
2420.0,3.849e-06
2425.0,6.386e-06
2430.0,2.061e-05
2435.0,1.032e-06
2440.0,2.4e-05
2445.0,1.671e-06
2450.0,8.702e-07
2455.0,6.328e-06
2460.0,3.17e-06
2465.0,1.586e-06
2470.0,9.796e-07
2475.0,9.555e-07
2480.0,4.485e-07
2485.0,2.888e-07
2490.0,1.661e-07
2495.0,1.437e-07
2500.0,3.565e-07
2505.0,7.249e-08
2510.0,1.067e-07
2515.0,2.259e-08
2520.0,1.269e-08
2525.0,1.447e-09
2530.0,1.008e-11
2535.0,2.228e-12
2540.0,5.286e-12
2545.0,4.1e-16
2550.0,1.662e-18
2555.0,7.978e-15
2560.0,2.395e-16
2565.0,5.3610000000000003e-20
2570.0,1.5959999999999999e-24
2575.0,1.01e-34
2580.0,1.053e-28
2585.0,2.2e-42
2590.0,1.3729999999999999e-38
2595.0,2.672e-40
2600.0,2.199e-35
2605.0,2.4310000000000002e-42
2610.0,8.367e-42
2615.0,1.4009999999999999e-45
2620.0,7.373e-36
2625.0,1.3500000000000001e-35
2630.0,0.0
2635.0,7.030999999999999e-22
2640.0,1.522e-22
2645.0,6.6350000000000005e-25
2650.0,6.609e-26
2655.0,7.948000000000001e-35
2660.0,6.692000000000001e-32
2665.0,7.006e-45
2670.0,0.0
2675.0,3.223e-44
2680.0,1.3570000000000001e-30
2685.0,1.296e-31
2690.0,4.850000000000001e-31
2695.0,1.9029999999999998e-33
2700.0,5.541999999999999e-29
2705.0,1.5720000000000002e-26
2710.0,1.252e-31
2715.0,1.5799999999999999e-29
2720.0,0.0
2725.0,3.539e-27
2730.0,1.032e-24
2735.0,1.1760000000000001e-26
2740.0,2.125e-32
2745.0,2.74e-27
2750.0,1.536e-26
2755.0,2.471e-28
2760.0,3.702e-23
2765.0,1.7369999999999998e-29
2770.0,8.538e-27
2775.0,4.3450000000000004e-21
2780.0,4.908e-21
2785.0,1.843e-20
2790.0,4.208e-18
2795.0,9.243e-19
2800.0,3.846e-15
2805.0,5.517e-17
2810.0,2.212e-13
2815.0,6.599e-14
2820.0,8.063e-16
2825.0,9.663e-09
2830.0,1.538e-10
2835.0,2.118e-15
2840.0,5.414e-12
2845.0,1.569e-09
2850.0,2.715e-11
2855.0,1.085e-11
2860.0,6.721e-10
2865.0,4.158e-09
2870.0,2.187e-10
2875.0,1.012e-08
2880.0,6.378e-09
2885.0,1.051e-08
2890.0,4.466e-09
2895.0,7.612e-08
2900.0,2.122e-08
2905.0,2.456e-09
2910.0,7.765e-08
2915.0,3.295e-08
2920.0,8.178e-08
2925.0,2.915e-08
2930.0,1.765e-07
2935.0,1.946e-07
2940.0,4.356e-08
2945.0,3.74e-08
2950.0,1.51e-07
2955.0,6.723e-08
2960.0,1.338e-07
2965.0,2.28e-07
2970.0,8.848e-09
2975.0,2.244e-08
2980.0,3.493e-08
2985.0,2.13e-07
2990.0,4.858e-07
2995.0,1.196e-07
3000.0,2.357e-07
3005.0,7.647e-08
3010.0,2.146e-07
3015.0,1.56e-07
3020.0,1.376e-08
3025.0,2.114e-07
3030.0,1.692e-07
3035.0,6.283e-08
3040.0,4.915e-08
3045.0,1.056e-07
3050.0,2.391e-08
3055.0,5.849e-09
3060.0,1.645e-07
3065.0,6.953e-08
3070.0,3.905e-08
3075.0,1.538e-07
3080.0,8.889e-08
3085.0,3.926e-08
3090.0,5.338e-08
3095.0,1.313e-08
3100.0,1.068e-07
3105.0,2e-08
3110.0,1.673e-08
3115.0,5.021e-08
3120.0,2.538e-07
3125.0,2.893e-07
3130.0,1.482e-07
3135.0,3.487e-07
3140.0,7.724e-08
3145.0,7.537e-08
3150.0,1.648e-07
3155.0,1.589e-07
3160.0,3.246e-07
3165.0,1.358e-06
3170.0,1.953e-06
3175.0,2.493e-07
3180.0,6.5e-07
3185.0,1.784e-07
3190.0,1.008e-07
3195.0,5.18e-08
3200.0,7.311e-09
3205.0,4.776e-09
3210.0,1.99e-09
3215.0,8.089e-09
3220.0,2.84e-08
3225.0,3.266e-09
3230.0,5.424e-09
3235.0,1.524e-07
3240.0,6.91e-08
3245.0,1.313e-08
3250.0,4.839e-08
3255.0,2.118e-07
3260.0,2.071e-08
3265.0,4.481e-08
3270.0,2.11e-08
3275.0,1.278e-07
3280.0,5.411e-08
3285.0,3.615e-07
3290.0,1.813e-07
3295.0,2.184e-08
3300.0,3.222e-08
3305.0,7.401e-08
3310.0,7.026e-08
3315.0,1.018e-10
3320.0,6.417e-10
3325.0,5.901e-08
3330.0,1.136e-07
3335.0,2.16e-07
3340.0,4.449e-07
3345.0,6.213e-08
3350.0,3.182e-07
3355.0,6.367e-08
3360.0,1.056e-07
3365.0,4.964e-07
3370.0,6.584e-08
3375.0,1.923e-06
3380.0,8.703e-08
3385.0,1.381e-06
3390.0,4.816e-07
3395.0,1.839e-06
3400.0,2.143e-05
3405.0,7.246e-08
3410.0,2.304e-06
3415.0,1.418e-07
3420.0,4.827e-05
3425.0,1.064e-06
3430.0,2.402e-07
3435.0,3.634e-05
3440.0,1.902e-07
3445.0,1.85e-05
3450.0,5.821e-06
3455.0,8.468e-07
3460.0,5.971e-05
3465.0,1.087e-06
3470.0,5.45e-05
3475.0,8.391e-06
3480.0,9.579e-06
3485.0,4.536e-05
3490.0,5.477e-06
3495.0,4.602e-05
3500.0,4.073e-05
3505.0,3.876e-05
3510.0,4.209e-05
3515.0,4.079e-05
3520.0,6.338e-05
3525.0,6.381e-05
3530.0,3.322e-05
3535.0,5.236e-06
3540.0,3.933e-06
3545.0,4.089e-06
3550.0,2.996e-05
3555.0,8.012e-06
3560.0,4.447e-05
3565.0,2.428e-05
3570.0,7.069e-06
3575.0,3.761e-06
3580.0,2.407e-05
3585.0,7.027e-06
3590.0,1.731e-05
3595.0,4.15e-05
3600.0,5.64e-05
3605.0,2.652e-05
3610.0,1.983e-05
3615.0,4.392e-05
3620.0,0.0001309
3625.0,3.442e-05
3630.0,5.004e-05
3635.0,5.925e-05
3640.0,0.0001457
3645.0,4.346e-05
3650.0,5.092e-05
3655.0,0.0001026
3660.0,0.0001232
3665.0,3.448e-05
3670.0,1.698e-05
3675.0,7.365e-07
3680.0,1.193e-05
3685.0,2.829e-05
3690.0,2.341e-05
3695.0,7.48e-05
3700.0,0.0001527
3705.0,0.0001365
3710.0,4.12e-05
3715.0,6.185e-05
3720.0,0.0001135
3725.0,0.0001298
3730.0,5.917e-05
3735.0,3.171e-05
3740.0,5.582e-05
3745.0,0.0001207
3750.0,7.541e-05
3755.0,5.79e-05
3760.0,3.812e-05
3765.0,4.015e-05
3770.0,6.313e-05
3775.0,6.472e-05
3780.0,9.65e-05
3785.0,5.853e-05
3790.0,2.746e-05
3795.0,7.44e-05
3800.0,0.0001273
3805.0,9.49e-05
3810.0,4.507e-05
3815.0,3.788e-05
3820.0,0.0001245
3825.0,0.0001244
3830.0,0.0001292
3835.0,2.933e-05
3840.0,7.633e-05
3845.0,5.356e-05
3850.0,5.485e-05
3855.0,4.303e-05
3860.0,1.534e-05
3865.0,1.488e-05
3870.0,4.142e-06
3875.0,1.32e-06
3880.0,7.604e-07
3885.0,1.228e-06
3890.0,1.546e-06
3895.0,5.486e-06
3900.0,1.887e-05
3905.0,1.551e-05
3910.0,3.129e-06
3915.0,2.389e-06
3920.0,2.555e-06
3925.0,2.306e-06
3930.0,3.476e-06
3935.0,6.696e-06
3940.0,8.248e-06
3945.0,1.149e-05
3950.0,1.613e-05
3955.0,1.957e-05
3960.0,2.299e-05
3965.0,2.618e-05
3970.0,2.33e-05
3975.0,1.682e-05
3980.0,1.468e-05
3985.0,1.684e-05
3990.0,1.489e-05
3995.0,1.156e-05
4000.0,8.956e-06
