interpolation:linear
wavelength,value
280.0,1.9779999999999998e-23
280.5,6.897999999999999e-22
281.0,3.765e-21
281.5,1.267e-19
282.0,1.042e-18
282.5,4.038e-18
283.0,1.408e-17
283.5,2.205e-17
284.0,3.439e-16
284.5,9.986e-16
285.0,5.698e-16
285.5,3.107e-15
286.0,1.278e-14
286.5,6.01e-14
287.0,1.766e-13
287.5,7.019e-13
288.0,9.073e-12
288.5,1.882e-11
289.0,4.175e-11
289.5,1.127e-10
290.0,2.94e-10
290.5,5.747e-10
291.0,1.188e-09
291.5,3.302e-09
292.0,6.342e-09
292.5,8.424e-09
293.0,1.704e-08
293.5,3.897e-08
294.0,5.813e-08
294.5,1.166e-08
295.0,1.954e-08
295.5,3.059e-08
296.0,5.298e-08
296.5,6.674e-08
297.0,8.295e-08
297.5,1.962e-07
298.0,2.779e-07
298.5,2.575e-07
299.0,5.241e-07
299.5,7.563e-07
300.0,7.692e-07
300.5,1.029e-06
301.0,1.637e-06
301.5,2.324e-06
302.0,1.874e-06
302.5,2.21e-06
303.0,4.031e-06
303.5,5.106e-06
304.0,4.786e-06
304.5,7.183e-06
305.0,1.127e-05
305.5,1.338e-05
306.0,1.317e-05
306.5,1.692e-05
307.0,2.724e-05
307.5,3.982e-05
308.0,4.278e-05
308.5,5.329e-05
309.0,4.916e-05
309.5,5.378e-05
310.0,5.4e-05
310.5,8.78e-05
311.0,0.0001114
311.5,0.0001083
312.0,0.0001138
312.5,0.000145
313.0,0.0001618
313.5,0.0001531
314.0,0.0002049
314.5,0.0002126
315.0,0.000289
315.5,0.0002208
316.0,0.0002248
316.5,0.0003708
317.0,0.0004593
317.5,0.0004592
318.0,0.0003945
318.5,0.0005936
319.0,0.0007791
319.5,0.0005408
320.0,0.0006382
320.5,0.0009777
321.0,0.001055
321.5,0.001031
322.0,0.0008944
322.5,0.0007861
323.0,0.0008948
323.5,0.002245
324.0,0.002727
324.5,0.002498
325.0,0.001153
325.5,0.00166
326.0,0.003873
326.5,0.004405
327.0,0.004189
327.5,0.00381
328.0,0.002847
328.5,0.003694
329.0,0.005305
329.5,0.0064
330.0,0.006145
330.5,0.004245
331.0,0.004144
331.5,0.004632
332.0,0.005917
332.5,0.006298
333.0,0.00602
333.5,0.004823
334.0,0.004839
334.5,0.006416
335.0,0.006517
335.5,0.008125
336.0,0.005621
336.5,0.005936
337.0,0.004598
337.5,0.005598
338.0,0.006113
338.5,0.007642
339.0,0.007625
339.5,0.007297
340.0,0.007939
340.5,0.007236
341.0,0.007571
341.5,0.007053
342.0,0.008464
342.5,0.007951
343.0,0.008668
343.5,0.008113
344.0,0.005583
344.5,0.005989
345.0,0.008063
345.5,0.008292
346.0,0.007082
346.5,0.008045
347.0,0.008572
347.5,0.006914
348.0,0.007957
348.5,0.007998
349.0,0.007439
349.5,0.007359
350.0,0.009112
350.5,0.009611
351.0,0.008548
351.5,0.008212
352.0,0.008887
352.5,0.006978
353.0,0.008823
353.5,0.009459
354.0,0.00984
354.5,0.009981
355.0,0.009932
355.5,0.008986
356.0,0.009416
356.5,0.008043
357.0,0.006644
357.5,0.008141
358.0,0.006459
358.5,0.005523
359.0,0.007719
359.5,0.009806
360.0,0.01041
360.5,0.008333
361.0,0.007608
361.5,0.00877
362.0,0.00759
362.5,0.01051
363.0,0.009443
363.5,0.008699
364.0,0.01064
364.5,0.009096
365.0,0.009264
365.5,0.01163
366.0,0.01233
366.5,0.01159
367.0,0.01129
367.5,0.01172
368.0,0.01026
368.5,0.01035
369.0,0.01118
369.5,0.01192
370.0,0.01272
370.5,0.009873
371.0,0.01055
371.5,0.01321
372.0,0.008768
372.5,0.01052
373.0,0.0107
373.5,0.006962
374.0,0.01012
374.5,0.008382
375.0,0.00815
375.5,0.01217
376.0,0.01009
376.5,0.01046
377.0,0.01108
377.5,0.01297
378.0,0.01406
378.5,0.01329
379.0,0.01097
379.5,0.01002
380.0,0.01042
380.5,0.01263
381.0,0.01266
381.5,0.01003
382.0,0.008914
382.5,0.007601
383.0,0.007039
383.5,0.006781
384.0,0.007482
384.5,0.01101
385.0,0.01092
385.5,0.01017
386.0,0.008714
386.5,0.01145
387.0,0.009515
387.5,0.01069
388.0,0.009872
388.5,0.00976
389.0,0.01054
389.5,0.01277
390.0,0.01282
390.5,0.0118
391.0,0.01389
391.5,0.01417
392.0,0.01194
392.5,0.01069
393.0,0.00595
393.5,0.004326
394.0,0.008805
394.5,0.0112
395.0,0.01367
395.5,0.01388
396.0,0.01204
396.5,0.007041
397.0,0.005286
397.5,0.01075
398.0,0.01506
398.5,0.01557
399.0,0.01687
399.5,0.01682
400.0,0.01747
401.0,0.01725
402.0,0.0182
403.0,0.0173
404.0,0.01704
405.0,0.01704
406.0,0.01677
407.0,0.01649
408.0,0.01713
409.0,0.01833
410.0,0.01602
411.0,0.01736
412.0,0.01866
413.0,0.01821
414.0,0.01843
415.0,0.01848
416.0,0.0188
417.0,0.01833
418.0,0.018
419.0,0.01824
420.0,0.01817
421.0,0.019
422.0,0.01805
423.0,0.01761
424.0,0.01861
425.0,0.01857
426.0,0.01809
427.0,0.01777
428.0,0.01732
429.0,0.01642
430.0,0.01438
431.0,0.01424
432.0,0.01837
433.0,0.01846
434.0,0.01715
435.0,0.01792
436.0,0.0202
437.0,0.01992
438.0,0.01812
439.0,0.0187
440.0,0.01926
441.0,0.01992
442.0,0.02133
443.0,0.02077
444.0,0.02125
445.0,0.02083
446.0,0.01992
447.0,0.02156
448.0,0.02188
449.0,0.02193
450.0,0.02252
451.0,0.02334
452.0,0.02251
453.0,0.02119
454.0,0.02213
455.0,0.02223
456.0,0.02273
457.0,0.02304
458.0,0.02217
459.0,0.02197
460.0,0.02195
461.0,0.02241
462.0,0.02259
463.0,0.02248
464.0,0.0222
465.0,0.022
466.0,0.02225
467.0,0.02183
468.0,0.02204
469.0,0.0221
470.0,0.02136
471.0,0.02134
472.0,0.0225
473.0,0.02221
474.0,0.02222
475.0,0.02233
476.0,0.02154
477.0,0.02148
478.0,0.02197
479.0,0.02173
480.0,0.02167
481.0,0.022
482.0,0.02211
483.0,0.02189
484.0,0.02151
485.0,0.02059
486.0,0.01809
487.0,0.01901
488.0,0.02086
489.0,0.02089
490.0,0.02194
491.0,0.02154
492.0,0.02033
493.0,0.02101
494.0,0.02123
495.0,0.02141
496.0,0.02151
497.0,0.02177
498.0,0.02065
499.0,0.02078
500.0,0.02004
501.0,0.01952
502.0,0.01906
503.0,0.01966
504.0,0.01895
505.0,0.01971
506.0,0.02035
507.0,0.0194
508.0,0.01889
509.0,0.01952
510.0,0.01951
511.0,0.02009
512.0,0.02034
513.0,0.01924
514.0,0.01909
515.0,0.01886
516.0,0.01879
517.0,0.01668
518.0,0.01752
519.0,0.01836
520.0,0.01898
521.0,0.01911
522.0,0.01906
523.0,0.01866
524.0,0.0192
525.0,0.01928
526.0,0.01833
527.0,0.01713
528.0,0.01801
529.0,0.01888
530.0,0.01852
531.0,0.01871
532.0,0.01803
533.0,0.01749
534.0,0.01803
535.0,0.01848
536.0,0.01871
537.0,0.01801
538.0,0.01834
539.0,0.01816
540.0,0.01735
541.0,0.0173
542.0,0.01779
543.0,0.01765
544.0,0.01784
545.0,0.01778
546.0,0.01777
547.0,0.01782
548.0,0.01767
549.0,0.01774
550.0,0.01794
551.0,0.01774
552.0,0.01787
553.0,0.01752
554.0,0.01793
555.0,0.01793
556.0,0.01765
557.0,0.01704
558.0,0.01682
559.0,0.0164
560.0,0.0165
561.0,0.01661
562.0,0.01637
563.0,0.0167
564.0,0.01614
565.0,0.01592
566.0,0.0156
567.0,0.01576
568.0,0.01536
569.0,0.01475
570.0,0.01469
571.0,0.01459
572.0,0.01472
573.0,0.01481
574.0,0.01467
575.0,0.0143
576.0,0.01416
577.0,0.01434
578.0,0.01425
579.0,0.01452
580.0,0.01513
581.0,0.0155
582.0,0.01603
583.0,0.01627
584.0,0.01654
585.0,0.01623
586.0,0.01595
587.0,0.01618
588.0,0.01549
589.0,0.01276
590.0,0.01326
591.0,0.01466
592.0,0.01405
593.0,0.01468
594.0,0.01442
595.0,0.01374
596.0,0.01518
597.0,0.01453
598.0,0.01476
599.0,0.01493
600.0,0.01501
601.0,0.01502
602.0,0.01499
603.0,0.01538
604.0,0.01574
605.0,0.01578
606.0,0.0158
607.0,0.01606
608.0,0.01601
609.0,0.01616
610.0,0.01618
611.0,0.01639
612.0,0.01647
613.0,0.01638
614.0,0.01627
615.0,0.01673
616.0,0.01627
617.0,0.01631
618.0,0.01701
619.0,0.01689
620.0,0.01703
621.0,0.01707
622.0,0.01689
623.0,0.01663
624.0,0.0163
625.0,0.01622
626.0,0.01638
627.0,0.01629
628.0,0.01226
629.0,0.01463
630.0,0.01419
631.0,0.01551
632.0,0.01566
633.0,0.01658
634.0,0.01687
635.0,0.01742
636.0,0.01743
637.0,0.01797
638.0,0.01849
639.0,0.01847
640.0,0.01857
641.0,0.01874
642.0,0.0189
643.0,0.01926
644.0,0.01939
645.0,0.01924
646.0,0.0185
647.0,0.01697
648.0,0.01725
649.0,0.01655
650.0,0.01824
651.0,0.01941
652.0,0.01726
653.0,0.01938
654.0,0.01939
655.0,0.01772
656.0,0.01618
657.0,0.01696
658.0,0.01936
659.0,0.01999
660.0,0.02016
661.0,0.02076
662.0,0.0212
663.0,0.02089
664.0,0.02119
665.0,0.0213
666.0,0.02147
667.0,0.02158
668.0,0.02181
669.0,0.02223
670.0,0.02226
671.0,0.02238
672.0,0.0223
673.0,0.02276
674.0,0.02278
675.0,0.02268
676.0,0.02294
677.0,0.02282
678.0,0.02298
679.0,0.02271
680.0,0.02295
681.0,0.02281
682.0,0.02282
683.0,0.02277
684.0,0.0226
685.0,0.02299
686.0,0.02263
687.0,0.006444
688.0,0.007996
689.0,0.008053
690.0,0.008981
691.0,0.01071
692.0,0.01299
693.0,0.01337
694.0,0.01435
695.0,0.01712
696.0,0.0173
697.0,0.02208
698.0,0.0209
699.0,0.01809
700.0,0.01795
701.0,0.01678
702.0,0.01736
703.0,0.01843
704.0,0.02037
705.0,0.02007
706.0,0.0206
707.0,0.02082
708.0,0.02121
709.0,0.02221
710.0,0.02104
711.0,0.02159
712.0,0.0224
713.0,0.02115
714.0,0.02191
715.0,0.02025
716.0,0.01949
717.0,0.01094
718.0,0.01045
719.0,0.009799
720.0,0.009322
721.0,0.01258
722.0,0.01648
723.0,0.01459
724.0,0.01189
725.0,0.01114
726.0,0.0109
727.0,0.01342
728.0,0.01023
729.0,0.01229
730.0,0.01217
731.0,0.01134
732.0,0.01429
733.0,0.01706
734.0,0.01867
735.0,0.01795
736.0,0.01693
737.0,0.01753
738.0,0.02067
739.0,0.02027
740.0,0.02173
741.0,0.02197
742.0,0.02264
743.0,0.02325
744.0,0.02345
745.0,0.02395
746.0,0.02407
747.0,0.02426
748.0,0.02427
749.0,0.02405
750.0,0.02407
751.0,0.02383
752.0,0.024
753.0,0.02419
754.0,0.02421
755.0,0.02402
756.0,0.02411
757.0,0.02412
758.0,0.0237
759.0,0.02027
760.0,0.001206
761.0,0.0006436
762.0,0.003539
763.0,0.001799
764.0,0.002662
765.0,0.003501
766.0,0.004326
767.0,0.006321
768.0,0.01196
769.0,0.01476
770.0,0.01946
771.0,0.02206
772.0,0.02298
773.0,0.02338
774.0,0.02348
775.0,0.02347
776.0,0.02385
777.0,0.02358
778.0,0.02341
779.0,0.02345
780.0,0.02338
781.0,0.02344
782.0,0.02363
783.0,0.02328
784.0,0.02349
785.0,0.02317
786.0,0.02314
787.0,0.02086
788.0,0.0203
789.0,0.02005
790.0,0.01778
791.0,0.01947
792.0,0.01976
793.0,0.01926
794.0,0.02194
795.0,0.02172
796.0,0.01776
797.0,0.0184
798.0,0.02154
799.0,0.02077
800.0,0.01907
801.0,0.01846
802.0,0.01839
803.0,0.01733
804.0,0.01814
805.0,0.01906
806.0,0.02152
807.0,0.02088
808.0,0.02064
809.0,0.01867
810.0,0.01844
811.0,0.01598
812.0,0.01449
813.0,0.01377
814.0,0.00957
815.0,0.009611
816.0,0.009719
817.0,0.009665
818.0,0.009263
819.0,0.01068
820.0,0.01135
821.0,0.01527
822.0,0.0135
823.0,0.004933
824.0,0.0119
825.0,0.01677
826.0,0.01262
827.0,0.01549
828.0,0.009066
829.0,0.01406
830.0,0.01373
831.0,0.01336
832.0,0.01248
833.0,0.01402
834.0,0.01311
835.0,0.01772
836.0,0.01475
837.0,0.01751
838.0,0.01571
839.0,0.01794
840.0,0.01897
841.0,0.01782
842.0,0.01885
843.0,0.02061
844.0,0.01963
845.0,0.02096
846.0,0.02149
847.0,0.0214
848.0,0.02062
849.0,0.02011
850.0,0.01916
851.0,0.01952
852.0,0.02
853.0,0.01968
854.0,0.01668
855.0,0.01876
856.0,0.02038
857.0,0.02126
858.0,0.02094
859.0,0.02141
860.0,0.02165
861.0,0.02146
862.0,0.02192
863.0,0.02241
864.0,0.02137
865.0,0.02125
866.0,0.01911
867.0,0.01997
868.0,0.02176
869.0,0.02136
870.0,0.022
871.0,0.02167
872.0,0.02166
873.0,0.02164
874.0,0.02139
875.0,0.0209
876.0,0.02111
877.0,0.02133
878.0,0.02151
879.0,0.02119
880.0,0.02069
881.0,0.02008
882.0,0.02023
883.0,0.0207
884.0,0.02044
885.0,0.02039
886.0,0.01835
887.0,0.01965
888.0,0.0193
889.0,0.02062
890.0,0.01919
891.0,0.01996
892.0,0.01719
893.0,0.01601
894.0,0.01282
895.0,0.009918
896.0,0.008861
897.0,0.006843
898.0,0.007585
899.0,0.004148
900.0,0.007585
901.0,0.004441
902.0,0.0052
903.0,0.005867
904.0,0.01179
905.0,0.01056
906.0,0.009492
907.0,0.005258
908.0,0.006375
909.0,0.006519
910.0,0.00418
911.0,0.006051
912.0,0.007722
913.0,0.004334
914.0,0.005883
915.0,0.004352
916.0,0.00461
917.0,0.006031
918.0,0.00422
919.0,0.006616
920.0,0.009323
921.0,0.008943
922.0,0.00658
923.0,0.008891
924.0,0.006084
925.0,0.00568
926.0,0.005773
927.0,0.007069
928.0,0.002577
929.0,0.002001
930.0,0.00127
931.0,0.001171
932.0,0.0008115
933.0,0.0006499
934.0,0.0003517
935.0,0.0006602
936.0,0.0004085
937.0,0.0004122
938.0,0.0005051
939.0,0.001102
940.0,0.001403
941.0,0.0009715
942.0,0.001134
943.0,0.0007212
944.0,0.0007733
945.0,0.0009918
946.0,0.0004845
947.0,0.0009797
948.0,0.0007214
949.0,0.001366
950.0,0.0003505
951.0,0.001343
952.0,0.0007073
953.0,0.0009136
954.0,0.001134
955.0,0.001055
956.0,0.001065
957.0,0.000705
958.0,0.001654
959.0,0.001106
960.0,0.001321
961.0,0.001698
962.0,0.001584
963.0,0.002379
964.0,0.002034
965.0,0.002061
966.0,0.002547
967.0,0.00266
968.0,0.008559
969.0,0.006051
970.0,0.006738
971.0,0.008603
972.0,0.008285
973.0,0.004459
974.0,0.004229
975.0,0.00529
976.0,0.004301
977.0,0.008058
978.0,0.005355
979.0,0.006463
980.0,0.006227
981.0,0.00917
982.0,0.008036
983.0,0.00712
984.0,0.01195
985.0,0.007513
986.0,0.01481
987.0,0.01178
988.0,0.01268
989.0,0.01598
990.0,0.01156
991.0,0.01591
992.0,0.01625
993.0,0.01349
994.0,0.01658
995.0,0.01704
996.0,0.01652
997.0,0.01667
998.0,0.01642
999.0,0.01652
1000.0,0.01601
1001.0,0.01673
1002.0,0.0135
1003.0,0.01639
1004.0,0.015
1005.0,0.01541
1006.0,0.01594
1007.0,0.0162
1008.0,0.0158
1009.0,0.01524
1010.0,0.01511
1011.0,0.01604
1012.0,0.01576
1013.0,0.01632
1014.0,0.01621
1015.0,0.0161
1016.0,0.01589
1017.0,0.01575
1018.0,0.0161
1019.0,0.0146
1020.0,0.0159
1021.0,0.01604
1022.0,0.01554
1023.0,0.01579
1024.0,0.01455
1025.0,0.01598
1026.0,0.01549
1027.0,0.01578
1028.0,0.01559
1029.0,0.01515
1030.0,0.01564
1031.0,0.01556
1032.0,0.0155
1033.0,0.01535
1034.0,0.01532
1035.0,0.01539
1036.0,0.01526
1037.0,0.01511
1038.0,0.01511
1039.0,0.015
1040.0,0.01491
1041.0,0.01484
1042.0,0.01473
1043.0,0.01461
1044.0,0.01457
1045.0,0.01429
1046.0,0.01404
1047.0,0.01406
1048.0,0.01402
1049.0,0.01386
1050.0,0.01368
1051.0,0.01351
1052.0,0.01332
1053.0,0.01305
1054.0,0.0129
1055.0,0.0127
1056.0,0.01242
1057.0,0.01222
1058.0,0.01175
1059.0,0.01155
1060.0,0.01145
1061.0,0.01132
1062.0,0.01125
1063.0,0.01093
1064.0,0.01112
1065.0,0.0106
1066.0,0.01072
1067.0,0.01081
1068.0,0.01029
1069.0,0.01028
1070.0,0.01068
1071.0,0.01137
1072.0,0.01083
1073.0,0.01071
1074.0,0.01189
1075.0,0.00945
1076.0,0.01192
1077.0,0.01075
1078.0,0.009728
1079.0,0.01225
1080.0,0.01033
1081.0,0.009067
1082.0,0.01109
1083.0,0.01147
1084.0,0.008996
1085.0,0.01069
1086.0,0.007985
1087.0,0.00901
1088.0,0.01131
1089.0,0.008791
1090.0,0.008198
1091.0,0.01042
1092.0,0.01071
1093.0,0.005779
1094.0,0.009154
1095.0,0.0056
1096.0,0.004751
1097.0,0.01067
1098.0,0.004697
1099.0,0.004582
1100.0,0.003363
1101.0,0.004004
1102.0,0.003238
1103.0,0.002554
1104.0,0.003034
1105.0,0.003587
1106.0,0.001268
1107.0,0.003434
1108.0,0.001556
1109.0,0.00161
1110.0,0.002271
1111.0,0.0006999
1112.0,0.001801
1113.0,0.0004834
1114.0,0.0005272
1115.0,0.0004059
1116.0,0.0002811
1117.0,0.0001003
1118.0,0.0003058
1119.0,0.0001479
1120.0,0.0001854
1121.0,0.0002461
1122.0,0.0001019
1123.0,0.0001659
1124.0,0.0001395
1125.0,0.0001819
1126.0,6.178e-05
1127.0,0.0002038
1128.0,0.0001201
1129.0,0.0001272
1130.0,8.288e-05
1131.0,0.0003867
1132.0,0.0003013
1133.0,0.0001878
1134.0,4.678e-05
1135.0,1.753e-05
1136.0,0.0001544
1137.0,0.000371
1138.0,0.0002599
1139.0,0.0004152
1140.0,0.0003301
1141.0,0.0002452
1142.0,0.0002832
1143.0,0.0004095
1144.0,0.0001376
1145.0,0.000174
1146.0,0.000187
1147.0,6.43e-05
1148.0,0.0003475
1149.0,0.0002707
1150.0,0.000146
1151.0,0.0002478
1152.0,0.0003095
1153.0,0.0003121
1154.0,0.0001644
1155.0,0.0004303
1156.0,0.0003862
1157.0,0.0005541
1158.0,0.0005318
1159.0,0.0006012
1160.0,0.0005862
1161.0,0.001278
1162.0,0.001494
1163.0,0.003147
1164.0,0.002443
1165.0,0.001461
1166.0,0.002386
1167.0,0.002627
1168.0,0.002724
1169.0,0.00319
1170.0,0.004403
1171.0,0.003588
1172.0,0.005407
1173.0,0.003888
1174.0,0.001525
1175.0,0.004783
1176.0,0.007897
1177.0,0.005717
1178.0,0.002704
1179.0,0.007469
1180.0,0.005449
1181.0,0.004367
1182.0,0.001396
1183.0,0.004715
1184.0,0.004616
1185.0,0.003483
1186.0,0.005868
1187.0,0.004195
1188.0,0.001342
1189.0,0.00421
1190.0,0.006193
1191.0,0.004094
1192.0,0.006555
1193.0,0.006357
1194.0,0.006167
1195.0,0.004466
1196.0,0.003568
1197.0,0.00633
1198.0,0.005878
1199.0,0.002475
1200.0,0.005289
1201.0,0.003875
1202.0,0.005525
1203.0,0.004063
1204.0,0.004397
1205.0,0.00678
1206.0,0.008467
1207.0,0.004871
1208.0,0.005587
1209.0,0.005725
1210.0,0.007296
1211.0,0.006078
1212.0,0.003782
1213.0,0.007043
1214.0,0.00446
1215.0,0.004058
1216.0,0.007715
1217.0,0.006826
1218.0,0.007613
1219.0,0.0071
1220.0,0.007536
1221.0,0.008417
1222.0,0.007663
1223.0,0.007348
1224.0,0.00659
1225.0,0.007603
1226.0,0.008693
1227.0,0.005775
1228.0,0.009542
1229.0,0.008501
1230.0,0.008085
1231.0,0.01
1232.0,0.009918
1233.0,0.006902
1234.0,0.01069
1235.0,0.01002
1236.0,0.01058
1237.0,0.00928
1238.0,0.01055
1239.0,0.01043
1240.0,0.01064
1241.0,0.009864
1242.0,0.01043
1243.0,0.01043
1244.0,0.01016
1245.0,0.01041
1246.0,0.0104
1247.0,0.01004
1248.0,0.00967
1249.0,0.01003
1250.0,0.009664
1251.0,0.008956
1252.0,0.009733
1253.0,0.008316
1254.0,0.007504
1255.0,0.009423
1256.0,0.006907
1257.0,0.006464
1258.0,0.00819
1259.0,0.005113
1260.0,0.00544
1261.0,0.002966
1262.0,0.002145
1263.0,0.002141
1264.0,0.001035
1265.0,0.002122
1266.0,0.001402
1267.0,0.001853
1268.0,0.001158
1269.0,0.0002076
1270.0,0.001648
1271.0,0.003239
1272.0,0.003329
1273.0,0.003093
1274.0,0.003487
1275.0,0.00378
1276.0,0.004339
1277.0,0.005118
1278.0,0.006227
1279.0,0.006323
1280.0,0.006422
1281.0,0.006847
1282.0,0.007529
1283.0,0.007853
1284.0,0.008147
1285.0,0.008385
1286.0,0.008909
1287.0,0.008121
1288.0,0.008412
1289.0,0.005869
1290.0,0.008311
1291.0,0.00888
1292.0,0.005042
1293.0,0.00811
1294.0,0.007682
1295.0,0.005916
1296.0,0.004703
1297.0,0.003939
1298.0,0.005701
1299.0,0.007767
1300.0,0.003247
1301.0,0.003163
1302.0,0.005687
1303.0,0.004082
1304.0,0.001436
1305.0,0.00507
1306.0,0.00422
1307.0,0.001988
1308.0,0.003476
1309.0,0.003721
1310.0,0.001954
1311.0,0.003521
1312.0,0.002904
1313.0,0.002032
1314.0,0.0009972
1315.0,0.000968
1316.0,0.002908
1317.0,0.002966
1318.0,0.003595
1319.0,0.001151
1320.0,0.0008841
1321.0,0.001673
1322.0,0.001046
1323.0,0.0003606
1324.0,0.001152
1325.0,0.001709
1326.0,0.001147
1327.0,0.0008625
1328.0,0.0003741
1329.0,0.0001528
1330.0,0.0002443
1331.0,0.0001105
1332.0,0.0001077
1333.0,0.0001585
1334.0,0.0001964
1335.0,0.0002358
1336.0,0.0001558
1337.0,0.0001459
1338.0,0.0001457
1339.0,0.0001447
1340.0,0.0001461
1341.0,0.0001222
1342.0,0.0001305
1343.0,8.363e-05
1344.0,4.995e-05
1345.0,7.165e-05
1346.0,3.534e-05
1347.0,3.58e-05
1348.0,2.308e-06
1349.0,8.281e-06
1350.0,8.584e-06
1351.0,2.075e-06
1352.0,5.583e-07
1353.0,2.841e-08
1354.0,9.766e-08
1355.0,7.864e-10
1356.0,1.376e-08
1357.0,2.091e-08
1358.0,9.235e-10
1359.0,1.163e-10
1360.0,4.205e-10
1361.0,4.704e-13
1362.0,1.287e-15
1363.0,5.655e-10
1364.0,2.335e-10
1365.0,4.494e-16
1366.0,2.451e-09
1367.0,1.001e-09
1368.0,3.47e-18
1369.0,8.606e-11
1370.0,4.238e-11
1371.0,2.403e-12
1372.0,5.428e-10
1373.0,1.094e-08
1374.0,5.073e-08
1375.0,9.201e-08
1376.0,8.252e-08
1377.0,3.77e-08
1378.0,3.686e-07
1379.0,1.575e-08
1380.0,2.264e-08
1381.0,5.897e-10
1382.0,4.76e-10
1383.0,7.117e-12
1384.0,9.333e-11
1385.0,4.463e-10
1386.0,4.198e-10
1387.0,5.078e-08
1388.0,9.988e-10
1389.0,1.715e-07
1390.0,1.472e-07
1391.0,9.788e-08
1392.0,6.345e-09
1393.0,3.362e-08
1394.0,1.733e-08
1395.0,1.27e-10
1396.0,6.137e-13
1397.0,1.324e-08
1398.0,3.914e-07
1399.0,2.476e-07
1400.0,2.625e-13
1401.0,1.089e-12
1402.0,6.86e-07
1403.0,8.593e-07
1404.0,2.611e-07
1405.0,6.016e-11
1406.0,6.749e-07
1407.0,5.948e-08
1408.0,5.492e-07
1409.0,1.831e-07
1410.0,1.466e-07
1411.0,7.392e-07
1412.0,9.973e-07
1413.0,1.038e-05
1414.0,1.145e-07
1415.0,5.466e-08
1416.0,1.716e-05
1417.0,5.067e-06
1418.0,5.738e-06
1419.0,8.83e-07
1420.0,3.487e-06
1421.0,3.762e-06
1422.0,2.206e-05
1423.0,4.231e-06
1424.0,7.943e-06
1425.0,1.16e-05
1426.0,1.328e-05
1427.0,2.47e-05
1428.0,1.729e-06
1429.0,1.819e-05
1430.0,3.139e-05
1431.0,3.451e-05
1432.0,1.344e-06
1433.0,2.165e-05
1434.0,1.089e-05
1435.0,1.056e-05
1436.0,2.079e-05
1437.0,1.59e-05
1438.0,6.562e-06
1439.0,2.826e-05
1440.0,2.11e-05
1441.0,1.578e-05
1442.0,1.748e-05
1443.0,2.23e-05
1444.0,3.106e-05
1445.0,2.386e-05
1446.0,1.058e-05
1447.0,1.668e-05
1448.0,5.912e-05
1449.0,5.079e-05
1450.0,1.229e-05
1451.0,4.84e-06
1452.0,2.989e-05
1453.0,3.939e-05
1454.0,6.998e-05
1455.0,3.192e-05
1456.0,4.255e-05
1457.0,5.814e-05
1458.0,7.273e-05
1459.0,8.503e-05
1460.0,4.25e-05
1461.0,4.298e-05
1462.0,6.449e-05
1463.0,2.011e-05
1464.0,7.801e-05
1465.0,4.652e-05
1466.0,3.019e-05
1467.0,1.544e-05
1468.0,3.573e-05
1469.0,4.435e-05
1470.0,2.129e-05
1471.0,7.552e-06
1472.0,2.024e-05
1473.0,3.147e-05
1474.0,4.762e-05
1475.0,9.58e-05
1476.0,3.141e-05
1477.0,3.127e-05
1478.0,2.938e-05
1479.0,5.811e-05
1480.0,2.678e-05
1481.0,5.407e-05
1482.0,2.631e-05
1483.0,7.325e-05
1484.0,7.931e-05
1485.0,6.237e-05
1486.0,5.762e-05
1487.0,2.537e-05
1488.0,4.909e-05
1489.0,0.0001237
1490.0,0.0002163
1491.0,0.0002613
1492.0,9.987e-05
1493.0,0.0002081
1494.0,0.0005135
1495.0,0.0002796
1496.0,0.0001979
1497.0,0.001146
1498.0,0.0006264
1499.0,0.0006765
1500.0,0.002181
1501.0,0.002012
1502.0,0.001754
1503.0,0.000714
1504.0,0.0001478
1505.0,0.0006673
1506.0,0.002708
1507.0,0.002457
1508.0,0.002424
1509.0,0.0008925
1510.0,0.003305
1511.0,0.002328
1512.0,0.003453
1513.0,0.001648
1514.0,0.001405
1515.0,0.003906
1516.0,0.003386
1517.0,0.00222
1518.0,0.002924
1519.0,0.002027
1520.0,0.002976
1521.0,0.005793
1522.0,0.003844
1523.0,0.006052
1524.0,0.004609
1525.0,0.003174
1526.0,0.003222
1527.0,0.00398
1528.0,0.005507
1529.0,0.004712
1530.0,0.003673
1531.0,0.004422
1532.0,0.006189
1533.0,0.006572
1534.0,0.006561
1535.0,0.005915
1536.0,0.006231
1537.0,0.00603
1538.0,0.006536
1539.0,0.006186
1540.0,0.006544
1541.0,0.00639
1542.0,0.006064
1543.0,0.006551
1544.0,0.006301
1545.0,0.006755
1546.0,0.006053
1547.0,0.006405
1548.0,0.006437
1549.0,0.006784
1550.0,0.006582
1551.0,0.006418
1552.0,0.006305
1553.0,0.006581
1554.0,0.00634
1555.0,0.006567
1556.0,0.006444
1557.0,0.006608
1558.0,0.006589
1559.0,0.006515
1560.0,0.006471
1561.0,0.006551
1562.0,0.006299
1563.0,0.006238
1564.0,0.006193
1565.0,0.006566
1566.0,0.006266
1567.0,0.006354
1568.0,0.006196
1569.0,0.0065
1570.0,0.006474
1571.0,0.006467
1572.0,0.006441
1573.0,0.006254
1574.0,0.005884
1575.0,0.005732
1576.0,0.005249
1577.0,0.005044
1578.0,0.005107
1579.0,0.004792
1580.0,0.004986
1581.0,0.004936
1582.0,0.004943
1583.0,0.004837
1584.0,0.005606
1585.0,0.005823
1586.0,0.005674
1587.0,0.005525
1588.0,0.005957
1589.0,0.005837
1590.0,0.00574
1591.0,0.006012
1592.0,0.005882
1593.0,0.006252
1594.0,0.006089
1595.0,0.00614
1596.0,0.005837
1597.0,0.005638
1598.0,0.006208
1599.0,0.006188
1600.0,0.006292
1601.0,0.006003
1602.0,0.005835
1603.0,0.006263
1604.0,0.006177
1605.0,0.006236
1606.0,0.006138
1607.0,0.006213
1608.0,0.005813
1609.0,0.005956
1610.0,0.005799
1611.0,0.005879
1612.0,0.006094
1613.0,0.005844
1614.0,0.006002
1615.0,0.005909
1616.0,0.005805
1617.0,0.005637
1618.0,0.00603
1619.0,0.005558
1620.0,0.005837
1621.0,0.005786
1622.0,0.005854
1623.0,0.005987
1624.0,0.005715
1625.0,0.005646
1626.0,0.00564
1627.0,0.005797
1628.0,0.005587
1629.0,0.005723
1630.0,0.005583
1631.0,0.005144
1632.0,0.005404
1633.0,0.004371
1634.0,0.005464
1635.0,0.004318
1636.0,0.004962
1637.0,0.005227
1638.0,0.003337
1639.0,0.005072
1640.0,0.003085
1641.0,0.004767
1642.0,0.005308
1643.0,0.002567
1644.0,0.005526
1645.0,0.003665
1646.0,0.002485
1647.0,0.005494
1648.0,0.002534
1649.0,0.004692
1650.0,0.004933
1651.0,0.002067
1652.0,0.004526
1653.0,0.005116
1654.0,0.002648
1655.0,0.004894
1656.0,0.003843
1657.0,0.004303
1658.0,0.00525
1659.0,0.004914
1660.0,0.004933
1661.0,0.004977
1662.0,0.00396
1663.0,0.005177
1664.0,0.004962
1665.0,0.002599
1666.0,0.0002916
1667.0,0.002626
1668.0,0.004491
1669.0,0.004658
1670.0,0.005105
1671.0,0.004506
1672.0,0.004893
1673.0,0.00509
1674.0,0.004053
1675.0,0.004294
1676.0,0.004827
1677.0,0.004202
1678.0,0.003364
1679.0,0.004976
1680.0,0.004459
1681.0,0.003358
1682.0,0.004855
1683.0,0.005013
1684.0,0.00205
1685.0,0.004966
1686.0,0.004933
1687.0,0.0034
1688.0,0.00459
1689.0,0.004697
1690.0,0.004276
1691.0,0.00226
1692.0,0.003933
1693.0,0.004959
1694.0,0.003518
1695.0,0.00455
1696.0,0.004877
1697.0,0.001528
1698.0,0.004321
1699.0,0.004442
1700.0,0.003653
1702.0,0.004275
1705.0,0.003382
1710.0,0.003021
1715.0,0.003308
1720.0,0.003487
1725.0,0.00212
1730.0,0.002756
1735.0,0.002249
1740.0,0.002299
1745.0,0.002414
1750.0,0.001616
1755.0,0.001719
1760.0,0.001375
1765.0,0.0008978
1770.0,0.0007553
1775.0,0.0004484
1780.0,0.0002311
1785.0,7.686e-05
1790.0,6.287e-05
1795.0,9.586e-06
1800.0,6.596e-06
1805.0,2.617e-06
1810.0,1.7e-06
1815.0,4.916e-07
1820.0,1.23e-07
1825.0,1.605e-07
1830.0,3.912e-10
1835.0,5.924e-10
1840.0,3.457e-12
1845.0,3.697e-10
1850.0,1.669e-10
1855.0,1.595e-11
1860.0,9.14e-10
1865.0,1.274e-09
1870.0,6.973e-15
1875.0,1.26e-14
1880.0,6.709e-09
1885.0,3.576e-09
1890.0,1.961e-08
1895.0,1.138e-08
1900.0,4.864e-11
1905.0,3.314e-11
1910.0,1.605e-09
1915.0,1.564e-09
1920.0,4.101e-08
1925.0,9.635e-08
1930.0,5.564e-08
1935.0,4.242e-07
1940.0,4.212e-07
1945.0,1.735e-06
1950.0,3.389e-06
1955.0,3.009e-06
1960.0,5.375e-06
1965.0,6.736e-05
1970.0,0.000184
1975.0,0.0002449
1980.0,0.0001436
1985.0,0.0002536
1990.0,0.0005556
1995.0,0.0005499
2000.0,0.000905
2005.0,0.0003967
2010.0,0.001904
2015.0,0.0005129
2020.0,0.0009062
2025.0,0.001513
2030.0,0.001027
2035.0,0.001903
2040.0,0.001449
2045.0,0.001564
2050.0,0.002133
2055.0,0.001544
2060.0,0.001368
2065.0,0.00164
2070.0,0.001444
2075.0,0.00202
2080.0,0.00201
2085.0,0.001978
2090.0,0.002127
2095.0,0.001911
2100.0,0.001387
2105.0,0.001917
2110.0,0.001528
2115.0,0.001953
2120.0,0.00138
2125.0,0.001689
2130.0,0.001967
2135.0,0.002085
2140.0,0.00215
2145.0,0.002116
2150.0,0.001358
2155.0,0.001342
2160.0,0.001435
2165.0,0.001211
2170.0,0.001543
2175.0,0.001187
2180.0,0.001465
2185.0,0.0009386
2190.0,0.001381
2195.0,0.001273
2200.0,0.0003514
2205.0,0.0008507
2210.0,0.001654
2215.0,0.001199
2220.0,0.001306
2225.0,0.00112
2230.0,0.001141
2235.0,0.0009742
2240.0,0.0009409
2245.0,0.0006244
2250.0,0.0009199
2255.0,0.0004367
2260.0,0.000391
2265.0,0.0006031
2270.0,0.0002914
2275.0,0.0002608
2280.0,0.0005744
2285.0,0.0002658
2290.0,0.0002847
2295.0,0.0002592
2300.0,0.0001359
2305.0,0.0001617
2310.0,0.0006204
2315.0,0.0001717
2320.0,6.035e-05
2325.0,0.0003569
2330.0,0.0002153
2335.0,0.0002897
2340.0,4.625e-05
2345.0,6.868e-05
2350.0,3.377e-05
2355.0,5.012e-05
2360.0,7.856e-05
2365.0,0.0001859
2370.0,3.129e-06
2375.0,4.252e-05
2380.0,8.566e-05
2385.0,1.257e-05
2390.0,1.894e-05
2395.0,2.698e-05
2400.0,3.53e-05
2405.0,3.655e-05
2410.0,3.395e-05
2415.0,4.243e-06
2420.0,3.557e-06
2425.0,5.817e-06
2430.0,1.848e-05
2435.0,1.002e-06
2440.0,2.145e-05
2445.0,1.595e-06
2450.0,8.489e-07
2455.0,5.903e-06
2460.0,2.956e-06
2465.0,1.54e-06
2470.0,9.613e-07
2475.0,9.367e-07
2480.0,4.398e-07
2485.0,2.835e-07
2490.0,1.63e-07
2495.0,1.41e-07
2500.0,3.499e-07
2505.0,7.114e-08
2510.0,1.047e-07
2515.0,2.217e-08
2520.0,1.246e-08
2525.0,1.42e-09
2530.0,9.888e-12
2535.0,2.187e-12
2540.0,5.188e-12
2545.0,4.024e-16
2550.0,1.631e-18
2555.0,7.83e-15
2560.0,2.35e-16
2565.0,5.2610000000000006e-20
2570.0,1.566e-24
2575.0,9.91e-35
2580.0,1.033e-28
2585.0,2.159e-42
2590.0,1.348e-38
2595.0,2.622e-40
2600.0,2.159e-35
2605.0,2.385e-42
2610.0,8.212e-42
2615.0,1.4009999999999999e-45
2620.0,7.236e-36
2625.0,1.325e-35
2630.0,0.0
2635.0,6.9009999999999995e-22
2640.0,1.4939999999999998e-22
2645.0,6.512e-25
2650.0,6.486e-26
2655.0,7.800000000000001e-35
2660.0,6.567e-32
2665.0,5.605e-45
2670.0,0.0
2675.0,3.223e-44
2680.0,1.3320000000000001e-30
2685.0,1.272e-31
2690.0,4.760000000000001e-31
2695.0,1.867e-33
2700.0,5.439e-29
2705.0,1.5430000000000002e-26
2710.0,1.228e-31
2715.0,1.551e-29
2720.0,0.0
2725.0,3.473e-27
2730.0,1.012e-24
2735.0,1.155e-26
2740.0,2.086e-32
2745.0,2.689e-27
2750.0,1.507e-26
2755.0,2.425e-28
2760.0,3.633e-23
2765.0,1.705e-29
2770.0,8.38e-27
2775.0,1.766e-21
2780.0,4.817e-21
2785.0,1.808e-20
2790.0,4.126e-18
2795.0,9.072e-19
2800.0,3.369e-15
2805.0,5.415e-17
2810.0,2.171e-13
2815.0,6.476e-14
2820.0,7.913e-16
2825.0,7.285e-09
2830.0,1.509e-10
2835.0,2.079e-15
2840.0,4.991e-12
2845.0,1.54e-09
2850.0,2.665e-11
2855.0,1.065e-11
2860.0,7.342e-10
2865.0,4.081e-09
2870.0,1.826e-10
2875.0,9.931e-09
2880.0,6.259e-09
2885.0,1.031e-08
2890.0,4.383e-09
2895.0,7.471e-08
2900.0,2.082e-08
2905.0,2.41e-09
2910.0,7.621e-08
2915.0,3.234e-08
2920.0,8.026e-08
2925.0,2.861e-08
2930.0,1.732e-07
2935.0,1.909e-07
2940.0,4.275e-08
2945.0,3.671e-08
2950.0,1.482e-07
2955.0,6.598e-08
2960.0,1.312e-07
2965.0,2.233e-07
2970.0,8.684e-09
2975.0,2.202e-08
2980.0,3.427e-08
2985.0,2.078e-07
2990.0,4.512e-07
2995.0,1.173e-07
3000.0,2.298e-07
3005.0,7.503e-08
3010.0,2.082e-07
3015.0,1.526e-07
3020.0,1.35e-08
3025.0,2.071e-07
3030.0,1.655e-07
3035.0,6.167e-08
3040.0,4.823e-08
3045.0,1.036e-07
3050.0,2.346e-08
3055.0,5.741e-09
3060.0,1.613e-07
3065.0,6.823e-08
3070.0,3.833e-08
3075.0,1.508e-07
3080.0,8.724e-08
3085.0,3.853e-08
3090.0,5.239e-08
3095.0,1.289e-08
3100.0,1.048e-07
3105.0,1.963e-08
3110.0,1.642e-08
3115.0,4.928e-08
3120.0,2.474e-07
3125.0,2.896e-07
3130.0,1.445e-07
3135.0,3.321e-07
3140.0,7.57e-08
3145.0,7.39e-08
3150.0,1.604e-07
3155.0,1.525e-07
3160.0,3.027e-07
3165.0,1.197e-06
3170.0,1.724e-06
3175.0,2.389e-07
3180.0,5.839e-07
3185.0,1.75e-07
3190.0,9.808e-08
3195.0,5.084e-08
3200.0,7.175e-09
3205.0,4.687e-09
3210.0,1.953e-09
3215.0,7.939e-09
3220.0,2.787e-08
3225.0,3.205e-09
3230.0,5.323e-09
3235.0,1.495e-07
3240.0,6.782e-08
3245.0,1.289e-08
3250.0,4.749e-08
3255.0,2.068e-07
3260.0,2.032e-08
3265.0,4.398e-08
3270.0,2.071e-08
3275.0,1.254e-07
3280.0,5.31e-08
3285.0,3.329e-07
3290.0,1.769e-07
3295.0,2.142e-08
3300.0,3.163e-08
3305.0,7.263e-08
3310.0,6.896e-08
3315.0,9.995e-11
3320.0,6.298e-10
3325.0,5.791e-08
3330.0,1.076e-07
3335.0,2.052e-07
3340.0,4.386e-07
3345.0,6.096e-08
3350.0,2.892e-07
3355.0,6.235e-08
3360.0,1.022e-07
3365.0,4.479e-07
3370.0,6.461e-08
3375.0,1.702e-06
3380.0,8.533e-08
3385.0,1.277e-06
3390.0,4.342e-07
3395.0,1.65e-06
3400.0,1.959e-05
3405.0,7.106e-08
3410.0,2.101e-06
3415.0,1.363e-07
3420.0,4.495e-05
3425.0,9.541e-07
3430.0,2.231e-07
3435.0,3.398e-05
3440.0,1.786e-07
3445.0,1.692e-05
3450.0,5.254e-06
3455.0,7.666e-07
3460.0,5.57e-05
3465.0,9.686e-07
3470.0,5.092e-05
3475.0,7.659e-06
3480.0,8.714e-06
3485.0,4.229e-05
3490.0,4.937e-06
3495.0,4.293e-05
3500.0,3.812e-05
3505.0,3.603e-05
3510.0,3.921e-05
3515.0,3.788e-05
3520.0,5.948e-05
3525.0,5.975e-05
3530.0,3.092e-05
3535.0,4.747e-06
3540.0,3.558e-06
3545.0,3.686e-06
3550.0,2.781e-05
3555.0,7.269e-06
3560.0,4.162e-05
3565.0,2.241e-05
3570.0,6.438e-06
3575.0,3.403e-06
3580.0,2.226e-05
3585.0,6.388e-06
3590.0,1.595e-05
3595.0,3.886e-05
3600.0,5.304e-05
3605.0,2.455e-05
3610.0,1.83e-05
3615.0,4.119e-05
3620.0,0.0001244
3625.0,3.207e-05
3630.0,4.704e-05
3635.0,5.584e-05
3640.0,0.0001393
3645.0,4.074e-05
3650.0,4.783e-05
3655.0,9.723e-05
3660.0,0.0001171
3665.0,3.216e-05
3670.0,1.574e-05
3675.0,6.594e-07
3680.0,1.098e-05
3685.0,2.617e-05
3690.0,2.171e-05
3695.0,7.063e-05
3700.0,0.0001458
3705.0,0.0001305
3710.0,3.852e-05
3715.0,5.835e-05
3720.0,0.0001077
3725.0,0.0001236
3730.0,5.569e-05
3735.0,2.961e-05
3740.0,5.259e-05
3745.0,0.0001149
3750.0,7.144e-05
3755.0,5.441e-05
3760.0,3.551e-05
3765.0,3.761e-05
3770.0,5.91e-05
3775.0,6.085e-05
3780.0,9.147e-05
3785.0,5.523e-05
3790.0,2.565e-05
3795.0,7.043e-05
3800.0,0.0001212
3805.0,9.005e-05
3810.0,4.248e-05
3815.0,3.547e-05
3820.0,0.0001185
3825.0,0.0001185
3830.0,0.0001231
3835.0,2.746e-05
3840.0,7.231e-05
3845.0,5.04e-05
3850.0,5.155e-05
3855.0,4.042e-05
3860.0,1.41e-05
3865.0,1.374e-05
3870.0,3.747e-06
3875.0,1.175e-06
3880.0,6.732e-07
3885.0,1.094e-06
3890.0,1.381e-06
3895.0,4.974e-06
3900.0,1.744e-05
3905.0,1.431e-05
3910.0,2.814e-06
3915.0,2.142e-06
3920.0,2.293e-06
3925.0,2.072e-06
3930.0,3.13e-06
3935.0,6.086e-06
3940.0,7.516e-06
3945.0,1.052e-05
3950.0,1.486e-05
3955.0,1.807e-05
3960.0,2.127e-05
3965.0,2.426e-05
3970.0,2.154e-05
3975.0,1.547e-05
3980.0,1.347e-05
3985.0,1.547e-05
3990.0,1.365e-05
3995.0,1.055e-05
4000.0,8.14e-06
