interpolation:linear
wavelength,value
280.0,2.6219999999999998e-23
280.5,9.121e-22
281.0,4.973e-21
281.5,1.669e-19
282.0,1.37e-18
282.5,4.687e-18
283.0,1.378e-17
283.5,2.197e-17
284.0,3.566e-16
284.5,1.044e-15
285.0,8.062e-16
285.5,4.251e-15
286.0,1.734e-14
286.5,8.048e-14
287.0,2.348e-13
287.5,9.264e-13
288.0,8.481e-12
288.5,1.949e-11
289.0,4.5e-11
289.5,1.242e-10
290.0,3.275e-10
290.5,6.442e-10
291.0,1.34e-09
291.5,3.741e-09
292.0,7.119e-09
292.5,9.513e-09
293.0,1.937e-08
293.5,4.458e-08
294.0,6.674e-08
294.5,1.342e-08
295.0,2.254e-08
295.5,3.483e-08
296.0,6.115e-08
296.5,7.794e-08
297.0,9.771e-08
297.5,2.338e-07
298.0,3.339e-07
298.5,3.113e-07
299.0,6.369e-07
299.5,9.266e-07
300.0,9.462e-07
300.5,1.27e-06
301.0,2.032e-06
301.5,2.896e-06
302.0,2.34e-06
302.5,3.153e-06
303.0,5.652e-06
303.5,7.086e-06
304.0,6.615e-06
304.5,9.821e-06
305.0,1.516e-05
305.5,1.78e-05
306.0,1.744e-05
306.5,2.224e-05
307.0,3.52e-05
307.5,5.056e-05
308.0,5.415e-05
308.5,6.686e-05
309.0,5.993e-05
309.5,6.799e-05
310.0,6.911e-05
310.5,0.000113
311.0,0.0001445
311.5,0.0001409
312.0,0.00015
312.5,0.0001925
313.0,0.0002155
313.5,0.0002033
314.0,0.000274
314.5,0.000274
315.0,0.0003723
315.5,0.0002891
316.0,0.0002895
316.5,0.0004769
317.0,0.0005907
317.5,0.0005909
318.0,0.0005072
318.5,0.0007619
319.0,0.000999
319.5,0.0006944
320.0,0.0008196
320.5,0.001253
321.0,0.001349
321.5,0.001319
322.0,0.001146
322.5,0.001007
323.0,0.001145
323.5,0.002865
324.0,0.00348
324.5,0.00319
325.0,0.001475
325.5,0.002121
326.0,0.004939
326.5,0.005624
327.0,0.005337
327.5,0.004857
328.0,0.003635
328.5,0.004707
329.0,0.006778
329.5,0.008165
330.0,0.007849
330.5,0.005405
331.0,0.005278
331.5,0.00593
332.0,0.007542
332.5,0.008015
333.0,0.007668
333.5,0.006161
334.0,0.006185
334.5,0.008172
335.0,0.008285
335.5,0.01031
336.0,0.00713
336.5,0.007552
337.0,0.005858
337.5,0.007135
338.0,0.00777
338.5,0.009689
339.0,0.009665
339.5,0.00925
340.0,0.01009
340.5,0.009192
341.0,0.009596
341.5,0.008936
342.0,0.01072
342.5,0.01007
343.0,0.01098
343.5,0.01028
344.0,0.007089
344.5,0.007589
345.0,0.01021
345.5,0.0105
346.0,0.008967
346.5,0.01019
347.0,0.01085
347.5,0.008754
348.0,0.01007
348.5,0.01012
349.0,0.009415
349.5,0.009314
350.0,0.01153
350.5,0.01216
351.0,0.01082
351.5,0.01039
352.0,0.01125
352.5,0.008829
353.0,0.01116
353.5,0.01197
354.0,0.01245
354.5,0.01263
355.0,0.01256
355.5,0.01137
356.0,0.01191
356.5,0.01017
357.0,0.008403
357.5,0.0103
358.0,0.008167
358.5,0.006984
359.0,0.009761
359.5,0.0124
360.0,0.01316
360.5,0.01054
361.0,0.009619
361.5,0.01109
362.0,0.009595
362.5,0.01328
363.0,0.01194
363.5,0.011
364.0,0.01345
364.5,0.0115
365.0,0.01171
365.5,0.0147
366.0,0.01558
366.5,0.01465
367.0,0.01427
367.5,0.01481
368.0,0.01296
368.5,0.01308
369.0,0.01413
369.5,0.01507
370.0,0.01607
370.5,0.01247
371.0,0.01333
371.5,0.01668
372.0,0.01108
372.5,0.01328
373.0,0.01351
373.5,0.008794
374.0,0.01278
374.5,0.01059
375.0,0.01029
375.5,0.01537
376.0,0.01275
376.5,0.01321
377.0,0.01399
377.5,0.01637
378.0,0.01775
378.5,0.01678
379.0,0.01385
379.5,0.01266
380.0,0.01316
380.5,0.01594
381.0,0.01598
381.5,0.01267
382.0,0.01125
382.5,0.009596
383.0,0.008886
383.5,0.008561
384.0,0.009446
384.5,0.0139
385.0,0.01378
385.5,0.01284
386.0,0.011
386.5,0.01445
387.0,0.01201
387.5,0.01349
388.0,0.01246
388.5,0.01232
389.0,0.0133
389.5,0.01611
390.0,0.01617
390.5,0.01489
391.0,0.01753
391.5,0.01788
392.0,0.01507
392.5,0.01349
393.0,0.007509
393.5,0.005459
394.0,0.01111
394.5,0.01413
395.0,0.01724
395.5,0.01752
396.0,0.01519
396.5,0.008885
397.0,0.00667
397.5,0.01357
398.0,0.01901
398.5,0.01965
399.0,0.02128
399.5,0.02122
400.0,0.02204
401.0,0.02177
402.0,0.02297
403.0,0.02183
404.0,0.0215
405.0,0.0215
406.0,0.02116
407.0,0.02081
408.0,0.02162
409.0,0.02314
410.0,0.02022
411.0,0.02191
412.0,0.02354
413.0,0.02298
414.0,0.02326
415.0,0.02332
416.0,0.02372
417.0,0.02314
418.0,0.02271
419.0,0.02303
420.0,0.02293
421.0,0.02399
422.0,0.02279
423.0,0.02224
424.0,0.0235
425.0,0.02345
426.0,0.02285
427.0,0.02244
428.0,0.02188
429.0,0.02074
430.0,0.01816
431.0,0.01799
432.0,0.02321
433.0,0.02333
434.0,0.02167
435.0,0.02265
436.0,0.02553
437.0,0.02518
438.0,0.02291
439.0,0.02364
440.0,0.02436
441.0,0.0252
442.0,0.02699
443.0,0.02628
444.0,0.02689
445.0,0.02636
446.0,0.02521
447.0,0.02729
448.0,0.0277
449.0,0.02777
450.0,0.02852
451.0,0.02957
452.0,0.02852
453.0,0.02685
454.0,0.02805
455.0,0.02818
456.0,0.02882
457.0,0.02922
458.0,0.02812
459.0,0.02788
460.0,0.02785
461.0,0.02844
462.0,0.02868
463.0,0.02855
464.0,0.02819
465.0,0.02794
466.0,0.02827
467.0,0.02774
468.0,0.02801
469.0,0.02809
470.0,0.02715
471.0,0.02713
472.0,0.02861
473.0,0.02825
474.0,0.02825
475.0,0.02839
476.0,0.02738
477.0,0.0273
478.0,0.02794
479.0,0.02765
480.0,0.0276
481.0,0.02805
482.0,0.0282
483.0,0.02793
484.0,0.02746
485.0,0.02629
486.0,0.02309
487.0,0.02428
488.0,0.02664
489.0,0.02668
490.0,0.02805
491.0,0.02754
492.0,0.026
493.0,0.02687
494.0,0.02716
495.0,0.0274
496.0,0.02753
497.0,0.02788
498.0,0.02645
499.0,0.02663
500.0,0.02568
501.0,0.02503
502.0,0.02444
503.0,0.02521
504.0,0.02425
505.0,0.02527
506.0,0.0261
507.0,0.02489
508.0,0.02424
509.0,0.02505
510.0,0.02505
511.0,0.02582
512.0,0.02615
513.0,0.02474
514.0,0.02455
515.0,0.02427
516.0,0.02417
517.0,0.02147
518.0,0.02255
519.0,0.02363
520.0,0.02445
521.0,0.02462
522.0,0.02455
523.0,0.02405
524.0,0.02474
525.0,0.02484
526.0,0.02363
527.0,0.02209
528.0,0.02323
529.0,0.02435
530.0,0.0239
531.0,0.02415
532.0,0.02327
533.0,0.02257
534.0,0.02328
535.0,0.02387
536.0,0.02417
537.0,0.02328
538.0,0.0237
539.0,0.02348
540.0,0.02243
541.0,0.02236
542.0,0.02299
543.0,0.02283
544.0,0.02306
545.0,0.02299
546.0,0.02297
547.0,0.02306
548.0,0.02286
549.0,0.02296
550.0,0.02323
551.0,0.02297
552.0,0.02314
553.0,0.0227
554.0,0.02323
555.0,0.02323
556.0,0.02287
557.0,0.02208
558.0,0.0218
559.0,0.02126
560.0,0.02139
561.0,0.02153
562.0,0.02123
563.0,0.02165
564.0,0.02093
565.0,0.02063
566.0,0.02022
567.0,0.02043
568.0,0.01989
569.0,0.01903
570.0,0.01898
571.0,0.01888
572.0,0.01902
573.0,0.01912
574.0,0.01894
575.0,0.01846
576.0,0.01828
577.0,0.01852
578.0,0.01841
579.0,0.01878
580.0,0.0196
581.0,0.0201
582.0,0.02079
583.0,0.02111
584.0,0.02148
585.0,0.02108
586.0,0.02071
587.0,0.021
588.0,0.02001
589.0,0.01645
590.0,0.0171
591.0,0.01897
592.0,0.01815
593.0,0.01897
594.0,0.01868
595.0,0.01768
596.0,0.01964
597.0,0.01879
598.0,0.01915
599.0,0.01933
600.0,0.01949
601.0,0.01954
602.0,0.01949
603.0,0.02
604.0,0.02048
605.0,0.02052
606.0,0.02055
607.0,0.02089
608.0,0.02081
609.0,0.02102
610.0,0.02104
611.0,0.02132
612.0,0.02141
613.0,0.0213
614.0,0.02116
615.0,0.02175
616.0,0.02115
617.0,0.0212
618.0,0.02211
619.0,0.02196
620.0,0.02214
621.0,0.0222
622.0,0.02196
623.0,0.02163
624.0,0.0212
625.0,0.02109
626.0,0.02129
627.0,0.02118
628.0,0.01574
629.0,0.01899
630.0,0.01839
631.0,0.02016
632.0,0.02031
633.0,0.02155
634.0,0.02193
635.0,0.02262
636.0,0.02265
637.0,0.02334
638.0,0.02403
639.0,0.02401
640.0,0.02413
641.0,0.02435
642.0,0.02455
643.0,0.02499
644.0,0.02517
645.0,0.02499
646.0,0.02394
647.0,0.02195
648.0,0.02242
649.0,0.02142
650.0,0.02369
651.0,0.02519
652.0,0.02243
653.0,0.02514
654.0,0.02504
655.0,0.02303
656.0,0.02102
657.0,0.02195
658.0,0.02513
659.0,0.02583
660.0,0.02609
661.0,0.0269
662.0,0.02747
663.0,0.02703
664.0,0.02742
665.0,0.02757
666.0,0.02778
667.0,0.02791
668.0,0.02819
669.0,0.02873
670.0,0.02877
671.0,0.02892
672.0,0.02881
673.0,0.0294
674.0,0.02942
675.0,0.02929
676.0,0.02962
677.0,0.02946
678.0,0.02967
679.0,0.02931
680.0,0.02962
681.0,0.02945
682.0,0.02946
683.0,0.0294
684.0,0.0292
685.0,0.02969
686.0,0.02924
687.0,0.007691
688.0,0.009847
689.0,0.009936
690.0,0.01129
691.0,0.01375
692.0,0.01686
693.0,0.01732
694.0,0.01867
695.0,0.02226
696.0,0.02249
697.0,0.02831
698.0,0.02706
699.0,0.02352
700.0,0.02332
701.0,0.02181
702.0,0.0226
703.0,0.02391
704.0,0.02647
705.0,0.02596
706.0,0.02659
707.0,0.02692
708.0,0.02712
709.0,0.02845
710.0,0.0271
711.0,0.02776
712.0,0.0287
713.0,0.02723
714.0,0.02813
715.0,0.02599
716.0,0.02519
717.0,0.01412
718.0,0.01329
719.0,0.01223
720.0,0.01171
721.0,0.01594
722.0,0.02147
723.0,0.01867
724.0,0.0149
725.0,0.01404
726.0,0.01407
727.0,0.01685
728.0,0.01312
729.0,0.01579
730.0,0.01578
731.0,0.0146
732.0,0.01857
733.0,0.0221
734.0,0.02409
735.0,0.02312
736.0,0.02202
737.0,0.02262
738.0,0.02648
739.0,0.02603
740.0,0.02779
741.0,0.02807
742.0,0.02885
743.0,0.02968
744.0,0.02996
745.0,0.03055
746.0,0.0307
747.0,0.03093
748.0,0.03093
749.0,0.03065
750.0,0.03067
751.0,0.03037
752.0,0.03058
753.0,0.03081
754.0,0.03085
755.0,0.03061
756.0,0.03071
757.0,0.03072
758.0,0.0302
759.0,0.02607
760.0,0.001386
761.0,0.0007394
762.0,0.004073
763.0,0.002067
764.0,0.003057
765.0,0.004027
766.0,0.005055
767.0,0.007868
768.0,0.01562
769.0,0.01922
770.0,0.02504
771.0,0.02817
772.0,0.02926
773.0,0.02975
774.0,0.02985
775.0,0.02982
776.0,0.03029
777.0,0.02994
778.0,0.02973
779.0,0.02978
780.0,0.02968
781.0,0.02976
782.0,0.03
783.0,0.02955
784.0,0.02981
785.0,0.02939
786.0,0.0294
787.0,0.02654
788.0,0.02569
789.0,0.02565
790.0,0.02289
791.0,0.02501
792.0,0.02534
793.0,0.02472
794.0,0.02783
795.0,0.02766
796.0,0.02276
797.0,0.02314
798.0,0.02724
799.0,0.02643
800.0,0.02451
801.0,0.02376
802.0,0.0234
803.0,0.02221
804.0,0.02311
805.0,0.02424
806.0,0.02727
807.0,0.02662
808.0,0.02627
809.0,0.02389
810.0,0.02357
811.0,0.02096
812.0,0.0187
813.0,0.01797
814.0,0.01248
815.0,0.01268
816.0,0.01212
817.0,0.01206
818.0,0.0114
819.0,0.01369
820.0,0.01394
821.0,0.01977
822.0,0.0176
823.0,0.006282
824.0,0.01534
825.0,0.02113
826.0,0.01638
827.0,0.01997
828.0,0.01157
829.0,0.01784
830.0,0.0175
831.0,0.01706
832.0,0.01579
833.0,0.01827
834.0,0.01711
835.0,0.02294
836.0,0.01896
837.0,0.0227
838.0,0.0205
839.0,0.02278
840.0,0.02402
841.0,0.02261
842.0,0.02398
843.0,0.02615
844.0,0.02498
845.0,0.0266
846.0,0.0272
847.0,0.02709
848.0,0.0261
849.0,0.02548
850.0,0.02429
851.0,0.02485
852.0,0.02535
853.0,0.02492
854.0,0.02108
855.0,0.02378
856.0,0.02578
857.0,0.0269
858.0,0.02647
859.0,0.02702
860.0,0.02732
861.0,0.02708
862.0,0.02765
863.0,0.02828
864.0,0.02696
865.0,0.02681
866.0,0.02411
867.0,0.02519
868.0,0.02744
869.0,0.02693
870.0,0.02773
871.0,0.02733
872.0,0.02731
873.0,0.02727
874.0,0.02696
875.0,0.02635
876.0,0.0266
877.0,0.02689
878.0,0.0271
879.0,0.0267
880.0,0.02609
881.0,0.02532
882.0,0.02555
883.0,0.02614
884.0,0.02581
885.0,0.02581
886.0,0.02337
887.0,0.02484
888.0,0.02449
889.0,0.02601
890.0,0.02436
891.0,0.02513
892.0,0.02206
893.0,0.02055
894.0,0.01669
895.0,0.01302
896.0,0.01134
897.0,0.008403
898.0,0.009448
899.0,0.005164
900.0,0.009889
901.0,0.005543
902.0,0.006929
903.0,0.007388
904.0,0.01528
905.0,0.01387
906.0,0.01227
907.0,0.006529
908.0,0.007922
909.0,0.008432
910.0,0.005486
911.0,0.008064
912.0,0.009356
913.0,0.00564
914.0,0.007182
915.0,0.005874
916.0,0.005718
917.0,0.008117
918.0,0.005327
919.0,0.008786
920.0,0.01222
921.0,0.01189
922.0,0.008791
923.0,0.01176
924.0,0.008195
925.0,0.007627
926.0,0.007792
927.0,0.009653
928.0,0.003396
929.0,0.002603
930.0,0.001516
931.0,0.001377
932.0,0.0009287
933.0,0.0007386
934.0,0.0003982
935.0,0.0007503
936.0,0.0004629
937.0,0.0004672
938.0,0.0005726
939.0,0.001298
940.0,0.001708
941.0,0.001131
942.0,0.001332
943.0,0.0008278
944.0,0.0009069
945.0,0.001163
946.0,0.0005503
947.0,0.00114
948.0,0.0008399
949.0,0.001655
950.0,0.0003976
951.0,0.001612
952.0,0.0008158
953.0,0.001075
954.0,0.001363
955.0,0.001235
956.0,0.001393
957.0,0.0008147
958.0,0.002155
959.0,0.001353
960.0,0.001621
961.0,0.002162
962.0,0.002033
963.0,0.003105
964.0,0.002647
965.0,0.002688
966.0,0.003267
967.0,0.003299
968.0,0.01079
969.0,0.00823
970.0,0.008475
971.0,0.01157
972.0,0.0107
973.0,0.005889
974.0,0.005656
975.0,0.006753
976.0,0.005295
977.0,0.01027
978.0,0.007019
979.0,0.008288
980.0,0.007896
981.0,0.01213
982.0,0.01076
983.0,0.00947
984.0,0.01553
985.0,0.01008
986.0,0.01868
987.0,0.01546
988.0,0.0165
989.0,0.02017
990.0,0.01519
991.0,0.02009
992.0,0.02046
993.0,0.01742
994.0,0.02085
995.0,0.02138
996.0,0.02076
997.0,0.02097
998.0,0.02066
999.0,0.02076
1000.0,0.02007
1001.0,0.02101
1002.0,0.01714
1003.0,0.02056
1004.0,0.01894
1005.0,0.0194
1006.0,0.02002
1007.0,0.02038
1008.0,0.0199
1009.0,0.01925
1010.0,0.01905
1011.0,0.02023
1012.0,0.01985
1013.0,0.02052
1014.0,0.02037
1015.0,0.02021
1016.0,0.01998
1017.0,0.01983
1018.0,0.02024
1019.0,0.01847
1020.0,0.01998
1021.0,0.02015
1022.0,0.01954
1023.0,0.01985
1024.0,0.0184
1025.0,0.02007
1026.0,0.01953
1027.0,0.0198
1028.0,0.01962
1029.0,0.01909
1030.0,0.01969
1031.0,0.01954
1032.0,0.01951
1033.0,0.01929
1034.0,0.01928
1035.0,0.01935
1036.0,0.01923
1037.0,0.01902
1038.0,0.01903
1039.0,0.0189
1040.0,0.01879
1041.0,0.01872
1042.0,0.01857
1043.0,0.01843
1044.0,0.01839
1045.0,0.01805
1046.0,0.01775
1047.0,0.01779
1048.0,0.01776
1049.0,0.01757
1050.0,0.01734
1051.0,0.01716
1052.0,0.01693
1053.0,0.0166
1054.0,0.01643
1055.0,0.01621
1056.0,0.01589
1057.0,0.01565
1058.0,0.01507
1059.0,0.01484
1060.0,0.01471
1061.0,0.01456
1062.0,0.01447
1063.0,0.0141
1064.0,0.01434
1065.0,0.01372
1066.0,0.01384
1067.0,0.01394
1068.0,0.01331
1069.0,0.01326
1070.0,0.01372
1071.0,0.01461
1072.0,0.01394
1073.0,0.01375
1074.0,0.01522
1075.0,0.01239
1076.0,0.01521
1077.0,0.01395
1078.0,0.01273
1079.0,0.01558
1080.0,0.01336
1081.0,0.01194
1082.0,0.0142
1083.0,0.01468
1084.0,0.01174
1085.0,0.01376
1086.0,0.01035
1087.0,0.01185
1088.0,0.0145
1089.0,0.0115
1090.0,0.01071
1091.0,0.0135
1092.0,0.01376
1093.0,0.007656
1094.0,0.01188
1095.0,0.007554
1096.0,0.006447
1097.0,0.01364
1098.0,0.006308
1099.0,0.006272
1100.0,0.004636
1101.0,0.005518
1102.0,0.004476
1103.0,0.003614
1104.0,0.004173
1105.0,0.005012
1106.0,0.001799
1107.0,0.004799
1108.0,0.002256
1109.0,0.00223
1110.0,0.003306
1111.0,0.0009263
1112.0,0.002427
1113.0,0.0006094
1114.0,0.0006601
1115.0,0.0004952
1116.0,0.000321
1117.0,0.000113
1118.0,0.0003505
1119.0,0.0001667
1120.0,0.0002087
1121.0,0.0002771
1122.0,0.0001147
1123.0,0.0001866
1124.0,0.000157
1125.0,0.0002049
1126.0,6.949e-05
1127.0,0.0002294
1128.0,0.0001351
1129.0,0.0001431
1130.0,9.325e-05
1131.0,0.0004406
1132.0,0.0003418
1133.0,0.0002113
1134.0,5.261e-05
1135.0,1.971e-05
1136.0,0.0001736
1137.0,0.0004214
1138.0,0.0002942
1139.0,0.0005038
1140.0,0.0003836
1141.0,0.0002784
1142.0,0.0003237
1143.0,0.000482
1144.0,0.0001555
1145.0,0.0001956
1146.0,0.0002103
1147.0,7.23e-05
1148.0,0.0004048
1149.0,0.0003088
1150.0,0.0001665
1151.0,0.0002815
1152.0,0.0003575
1153.0,0.0003712
1154.0,0.0001858
1155.0,0.0005322
1156.0,0.0004683
1157.0,0.0007375
1158.0,0.0007209
1159.0,0.0008014
1160.0,0.0007964
1161.0,0.001731
1162.0,0.001897
1163.0,0.004446
1164.0,0.003224
1165.0,0.002092
1166.0,0.003132
1167.0,0.003558
1168.0,0.003821
1169.0,0.00439
1170.0,0.005939
1171.0,0.004948
1172.0,0.006944
1173.0,0.005369
1174.0,0.002078
1175.0,0.006412
1176.0,0.01009
1177.0,0.007647
1178.0,0.003623
1179.0,0.009649
1180.0,0.006778
1181.0,0.005953
1182.0,0.001907
1183.0,0.006393
1184.0,0.005748
1185.0,0.004462
1186.0,0.00785
1187.0,0.005766
1188.0,0.001761
1189.0,0.005599
1190.0,0.008143
1191.0,0.005565
1192.0,0.008621
1193.0,0.007976
1194.0,0.008125
1195.0,0.006066
1196.0,0.004917
1197.0,0.008402
1198.0,0.007703
1199.0,0.003366
1200.0,0.007137
1201.0,0.00531
1202.0,0.00729
1203.0,0.005598
1204.0,0.005316
1205.0,0.008632
1206.0,0.01095
1207.0,0.006536
1208.0,0.007441
1209.0,0.007492
1210.0,0.009307
1211.0,0.007852
1212.0,0.00517
1213.0,0.009234
1214.0,0.006008
1215.0,0.005574
1216.0,0.009973
1217.0,0.008877
1218.0,0.009853
1219.0,0.009174
1220.0,0.009755
1221.0,0.01091
1222.0,0.009912
1223.0,0.009531
1224.0,0.008569
1225.0,0.009965
1226.0,0.01121
1227.0,0.007622
1228.0,0.01205
1229.0,0.011
1230.0,0.01051
1231.0,0.01261
1232.0,0.01249
1233.0,0.00914
1234.0,0.01342
1235.0,0.01266
1236.0,0.01329
1237.0,0.01186
1238.0,0.01325
1239.0,0.01309
1240.0,0.01334
1241.0,0.01241
1242.0,0.0131
1243.0,0.01309
1244.0,0.01279
1245.0,0.01308
1246.0,0.01306
1247.0,0.01266
1248.0,0.01221
1249.0,0.01265
1250.0,0.01222
1251.0,0.0114
1252.0,0.01227
1253.0,0.01066
1254.0,0.009679
1255.0,0.01191
1256.0,0.008994
1257.0,0.008475
1258.0,0.0105
1259.0,0.006847
1260.0,0.00724
1261.0,0.004146
1262.0,0.00307
1263.0,0.003061
1264.0,0.001525
1265.0,0.00304
1266.0,0.00205
1267.0,0.002672
1268.0,0.0017
1269.0,0.000236
1270.0,0.002396
1271.0,0.004508
1272.0,0.004619
1273.0,0.004316
1274.0,0.004807
1275.0,0.005191
1276.0,0.00587
1277.0,0.006843
1278.0,0.008176
1279.0,0.008309
1280.0,0.008322
1281.0,0.008771
1282.0,0.009596
1283.0,0.01004
1284.0,0.01032
1285.0,0.01066
1286.0,0.0113
1287.0,0.01022
1288.0,0.01067
1289.0,0.007792
1290.0,0.0105
1291.0,0.01117
1292.0,0.006813
1293.0,0.01029
1294.0,0.009851
1295.0,0.007872
1296.0,0.006379
1297.0,0.005315
1298.0,0.007539
1299.0,0.009991
1300.0,0.004493
1301.0,0.00447
1302.0,0.007592
1303.0,0.005188
1304.0,0.00204
1305.0,0.006851
1306.0,0.00588
1307.0,0.002677
1308.0,0.00471
1309.0,0.005214
1310.0,0.002531
1311.0,0.00453
1312.0,0.004011
1313.0,0.002806
1314.0,0.001481
1315.0,0.001429
1316.0,0.003848
1317.0,0.003654
1318.0,0.004621
1319.0,0.001506
1320.0,0.001251
1321.0,0.002299
1322.0,0.001572
1323.0,0.0005073
1324.0,0.00153
1325.0,0.002469
1326.0,0.001616
1327.0,0.001234
1328.0,0.0005602
1329.0,0.0001949
1330.0,0.0003529
1331.0,0.0001311
1332.0,0.0001263
1333.0,0.0001936
1334.0,0.0002761
1335.0,0.0003289
1336.0,0.000197
1337.0,0.0001885
1338.0,0.0001867
1339.0,0.0001828
1340.0,0.0001921
1341.0,0.0001433
1342.0,0.0001561
1343.0,9.438e-05
1344.0,5.635e-05
1345.0,8.043e-05
1346.0,3.964e-05
1347.0,4.015e-05
1348.0,2.589e-06
1349.0,9.286e-06
1350.0,9.627e-06
1351.0,2.327e-06
1352.0,6.261e-07
1353.0,3.186e-08
1354.0,1.095e-07
1355.0,8.819e-10
1356.0,1.543e-08
1357.0,2.345e-08
1358.0,1.036e-09
1359.0,1.305e-10
1360.0,4.715e-10
1361.0,5.274e-13
1362.0,1.443e-15
1363.0,6.341e-10
1364.0,2.618e-10
1365.0,5.039e-16
1366.0,2.748e-09
1367.0,1.122e-09
1368.0,3.891e-18
1369.0,9.649e-11
1370.0,4.752e-11
1371.0,2.694e-12
1372.0,6.086e-10
1373.0,1.226e-08
1374.0,5.688e-08
1375.0,1.032e-07
1376.0,9.252e-08
1377.0,4.226e-08
1378.0,4.132e-07
1379.0,1.766e-08
1380.0,2.538e-08
1381.0,6.612e-10
1382.0,5.337e-10
1383.0,7.979e-12
1384.0,1.046e-10
1385.0,5.003e-10
1386.0,4.707e-10
1387.0,5.693e-08
1388.0,1.12e-09
1389.0,1.922e-07
1390.0,1.65e-07
1391.0,1.097e-07
1392.0,7.113e-09
1393.0,3.768e-08
1394.0,1.942e-08
1395.0,1.423e-10
1396.0,6.88e-13
1397.0,1.484e-08
1398.0,4.388e-07
1399.0,2.776e-07
1400.0,2.942e-13
1401.0,1.221e-12
1402.0,7.69e-07
1403.0,9.633e-07
1404.0,2.927e-07
1405.0,6.743e-11
1406.0,7.565e-07
1407.0,6.667e-08
1408.0,6.156e-07
1409.0,2.052e-07
1410.0,1.643e-07
1411.0,8.285e-07
1412.0,1.118e-06
1413.0,1.164e-05
1414.0,1.283e-07
1415.0,6.127e-08
1416.0,1.923e-05
1417.0,5.679e-06
1418.0,6.431e-06
1419.0,9.897e-07
1420.0,3.908e-06
1421.0,4.216e-06
1422.0,2.472e-05
1423.0,4.742e-06
1424.0,8.903e-06
1425.0,1.3e-05
1426.0,1.488e-05
1427.0,2.768e-05
1428.0,1.937e-06
1429.0,2.039e-05
1430.0,3.52e-05
1431.0,3.869e-05
1432.0,1.506e-06
1433.0,2.427e-05
1434.0,1.221e-05
1435.0,1.183e-05
1436.0,2.33e-05
1437.0,1.782e-05
1438.0,7.354e-06
1439.0,3.168e-05
1440.0,2.365e-05
1441.0,1.768e-05
1442.0,1.959e-05
1443.0,2.499e-05
1444.0,3.482e-05
1445.0,2.674e-05
1446.0,1.186e-05
1447.0,1.869e-05
1448.0,6.641e-05
1449.0,5.703e-05
1450.0,1.378e-05
1451.0,5.424e-06
1452.0,3.35e-05
1453.0,4.417e-05
1454.0,8.016e-05
1455.0,3.584e-05
1456.0,4.778e-05
1457.0,6.568e-05
1458.0,8.685e-05
1459.0,0.0001025
1460.0,4.874e-05
1461.0,4.823e-05
1462.0,7.41e-05
1463.0,2.266e-05
1464.0,9.196e-05
1465.0,5.402e-05
1466.0,3.384e-05
1467.0,1.731e-05
1468.0,4.008e-05
1469.0,4.985e-05
1470.0,2.386e-05
1471.0,8.467e-06
1472.0,2.268e-05
1473.0,3.526e-05
1474.0,5.466e-05
1475.0,0.0001193
1476.0,3.538e-05
1477.0,3.507e-05
1478.0,3.332e-05
1479.0,6.754e-05
1480.0,3.005e-05
1481.0,6.121e-05
1482.0,2.976e-05
1483.0,8.862e-05
1484.0,0.0001043
1485.0,7.822e-05
1486.0,6.657e-05
1487.0,2.857e-05
1488.0,5.929e-05
1489.0,0.0001879
1490.0,0.0003374
1491.0,0.0004027
1492.0,0.0001335
1493.0,0.0003267
1494.0,0.0008041
1495.0,0.0004254
1496.0,0.0002969
1497.0,0.00168
1498.0,0.0008856
1499.0,0.001066
1500.0,0.003037
1501.0,0.002888
1502.0,0.002361
1503.0,0.001011
1504.0,0.0002404
1505.0,0.001002
1506.0,0.003699
1507.0,0.003378
1508.0,0.003196
1509.0,0.0012
1510.0,0.004469
1511.0,0.003305
1512.0,0.004613
1513.0,0.002437
1514.0,0.002003
1515.0,0.005173
1516.0,0.004488
1517.0,0.00308
1518.0,0.003924
1519.0,0.002832
1520.0,0.004065
1521.0,0.007343
1522.0,0.005112
1523.0,0.00768
1524.0,0.006061
1525.0,0.004315
1526.0,0.004231
1527.0,0.00522
1528.0,0.007076
1529.0,0.00616
1530.0,0.004812
1531.0,0.005814
1532.0,0.007822
1533.0,0.008257
1534.0,0.008116
1535.0,0.00741
1536.0,0.007857
1537.0,0.007436
1538.0,0.008181
1539.0,0.007707
1540.0,0.008191
1541.0,0.008017
1542.0,0.007581
1543.0,0.008179
1544.0,0.007831
1545.0,0.008433
1546.0,0.007631
1547.0,0.008022
1548.0,0.008058
1549.0,0.008451
1550.0,0.008218
1551.0,0.008058
1552.0,0.007822
1553.0,0.00821
1554.0,0.007935
1555.0,0.008189
1556.0,0.008059
1557.0,0.008254
1558.0,0.008219
1559.0,0.008127
1560.0,0.0081
1561.0,0.008194
1562.0,0.007872
1563.0,0.007827
1564.0,0.00778
1565.0,0.00818
1566.0,0.007847
1567.0,0.007955
1568.0,0.007762
1569.0,0.008104
1570.0,0.008086
1571.0,0.008086
1572.0,0.008047
1573.0,0.007836
1574.0,0.007392
1575.0,0.007203
1576.0,0.006658
1577.0,0.006399
1578.0,0.006506
1579.0,0.00615
1580.0,0.006379
1581.0,0.006314
1582.0,0.00631
1583.0,0.006192
1584.0,0.007073
1585.0,0.007328
1586.0,0.007127
1587.0,0.006971
1588.0,0.00743
1589.0,0.00727
1590.0,0.007178
1591.0,0.007498
1592.0,0.007363
1593.0,0.007815
1594.0,0.007605
1595.0,0.007671
1596.0,0.007308
1597.0,0.007106
1598.0,0.00776
1599.0,0.007719
1600.0,0.00783
1601.0,0.007502
1602.0,0.007313
1603.0,0.007799
1604.0,0.007698
1605.0,0.007761
1606.0,0.007643
1607.0,0.007733
1608.0,0.007302
1609.0,0.007423
1610.0,0.007238
1611.0,0.007328
1612.0,0.007585
1613.0,0.007309
1614.0,0.00748
1615.0,0.007365
1616.0,0.007229
1617.0,0.007071
1618.0,0.007514
1619.0,0.006972
1620.0,0.007266
1621.0,0.007218
1622.0,0.007311
1623.0,0.00747
1624.0,0.007155
1625.0,0.007088
1626.0,0.00707
1627.0,0.007251
1628.0,0.007015
1629.0,0.007159
1630.0,0.006998
1631.0,0.006503
1632.0,0.006781
1633.0,0.005613
1634.0,0.006854
1635.0,0.005552
1636.0,0.006274
1637.0,0.00657
1638.0,0.00437
1639.0,0.006373
1640.0,0.004043
1641.0,0.006029
1642.0,0.006659
1643.0,0.003455
1644.0,0.006891
1645.0,0.004758
1646.0,0.003355
1647.0,0.006872
1648.0,0.003419
1649.0,0.00595
1650.0,0.006234
1651.0,0.002839
1652.0,0.005786
1653.0,0.006387
1654.0,0.003538
1655.0,0.006177
1656.0,0.004967
1657.0,0.005499
1658.0,0.006573
1659.0,0.0062
1660.0,0.006241
1661.0,0.006226
1662.0,0.005064
1663.0,0.006496
1664.0,0.006215
1665.0,0.003492
1666.0,0.0004632
1667.0,0.00351
1668.0,0.005702
1669.0,0.005858
1670.0,0.006394
1671.0,0.005697
1672.0,0.006125
1673.0,0.006383
1674.0,0.005181
1675.0,0.005439
1676.0,0.006037
1677.0,0.005362
1678.0,0.004371
1679.0,0.006223
1680.0,0.00566
1681.0,0.00435
1682.0,0.006071
1683.0,0.006255
1684.0,0.002828
1685.0,0.006226
1686.0,0.006178
1687.0,0.004411
1688.0,0.005804
1689.0,0.005908
1690.0,0.005425
1691.0,0.003085
1692.0,0.00505
1693.0,0.006218
1694.0,0.004545
1695.0,0.005758
1696.0,0.006122
1697.0,0.002174
1698.0,0.005499
1699.0,0.005621
1700.0,0.004691
1702.0,0.00543
1705.0,0.004373
1710.0,0.003933
1715.0,0.004204
1720.0,0.00442
1725.0,0.002871
1730.0,0.003439
1735.0,0.002921
1740.0,0.002904
1745.0,0.002913
1750.0,0.002234
1755.0,0.002168
1760.0,0.001926
1765.0,0.001161
1770.0,0.001054
1775.0,0.0005762
1780.0,0.0003
1785.0,9.859e-05
1790.0,9.582e-05
1795.0,1.075e-05
1800.0,7.406e-06
1805.0,2.929e-06
1810.0,1.903e-06
1815.0,5.502e-07
1820.0,1.376e-07
1825.0,1.796e-07
1830.0,4.379e-10
1835.0,6.63e-10
1840.0,3.869e-12
1845.0,4.137e-10
1850.0,1.868e-10
1855.0,1.785e-11
1860.0,1.023e-09
1865.0,1.426e-09
1870.0,7.803e-15
1875.0,1.41e-14
1880.0,7.508e-09
1885.0,4.001e-09
1890.0,2.195e-08
1895.0,1.273e-08
1900.0,5.443e-11
1905.0,3.708e-11
1910.0,1.796e-09
1915.0,1.75e-09
1920.0,4.589e-08
1925.0,1.078e-07
1930.0,6.226e-08
1935.0,4.746e-07
1940.0,4.714e-07
1945.0,1.941e-06
1950.0,3.824e-06
1955.0,3.367e-06
1960.0,6.198e-06
1965.0,7.819e-05
1970.0,0.0002369
1975.0,0.0003223
1980.0,0.0002342
1985.0,0.0003965
1990.0,0.0007064
1995.0,0.0007564
2000.0,0.001196
2005.0,0.0005297
2010.0,0.002486
2015.0,0.0007581
2020.0,0.001255
2025.0,0.002009
2030.0,0.001402
2035.0,0.00248
2040.0,0.001943
2045.0,0.002074
2050.0,0.002713
2055.0,0.002047
2060.0,0.001832
2065.0,0.002089
2070.0,0.001873
2075.0,0.002575
2080.0,0.002534
2085.0,0.002492
2090.0,0.002693
2095.0,0.002436
2100.0,0.001804
2105.0,0.00244
2110.0,0.001993
2115.0,0.002478
2120.0,0.001804
2125.0,0.002157
2130.0,0.002478
2135.0,0.002616
2140.0,0.002704
2145.0,0.002658
2150.0,0.001775
2155.0,0.001773
2160.0,0.001869
2165.0,0.001588
2170.0,0.001983
2175.0,0.001564
2180.0,0.001895
2185.0,0.00124
2190.0,0.001791
2195.0,0.001663
2200.0,0.0005188
2205.0,0.001149
2210.0,0.002101
2215.0,0.001577
2220.0,0.001695
2225.0,0.001476
2230.0,0.001503
2235.0,0.001302
2240.0,0.001261
2245.0,0.0008703
2250.0,0.001233
2255.0,0.00063
2260.0,0.000569
2265.0,0.0008414
2270.0,0.0004364
2275.0,0.0003945
2280.0,0.0008034
2285.0,0.0004005
2290.0,0.0004261
2295.0,0.0003908
2300.0,0.0002166
2305.0,0.0002531
2310.0,0.0008589
2315.0,0.0002683
2320.0,0.0001002
2325.0,0.000512
2330.0,0.0003264
2335.0,0.0004301
2340.0,7.649e-05
2345.0,0.0001161
2350.0,5.443e-05
2355.0,8.44e-05
2360.0,0.0001344
2365.0,0.000273
2370.0,4.651e-06
2375.0,7.11e-05
2380.0,0.0001232
2385.0,2.117e-05
2390.0,3.454e-05
2395.0,4.894e-05
2400.0,6.624e-05
2405.0,5.592e-05
2410.0,5.41e-05
2415.0,6.859e-06
2420.0,6.222e-06
2425.0,1.103e-05
2430.0,3.734e-05
2435.0,1.248e-06
2440.0,4.389e-05
2445.0,2.275e-06
2450.0,1.009e-06
2455.0,9.57e-06
2460.0,5.063e-06
2465.0,1.929e-06
2470.0,1.077e-06
2475.0,1.06e-06
2480.0,4.965e-07
2485.0,3.171e-07
2490.0,1.823e-07
2495.0,1.577e-07
2500.0,3.913e-07
2505.0,7.958e-08
2510.0,1.172e-07
2515.0,2.479e-08
2520.0,1.393e-08
2525.0,1.589e-09
2530.0,1.106e-11
2535.0,2.446e-12
2540.0,5.803e-12
2545.0,4.5e-16
2550.0,1.825e-18
2555.0,8.757e-15
2560.0,2.628e-16
2565.0,5.884000000000001e-20
2570.0,1.7519999999999998e-24
2575.0,1.1080000000000001e-34
2580.0,1.156e-28
2585.0,2.4160000000000002e-42
2590.0,1.507e-38
2595.0,2.932e-40
2600.0,2.414e-35
2605.0,2.6680000000000003e-42
2610.0,9.184e-42
2615.0,1.4009999999999999e-45
2620.0,8.093e-36
2625.0,1.482e-35
2630.0,0.0
2635.0,7.717999999999999e-22
2640.0,1.671e-22
2645.0,7.2830000000000005e-25
2650.0,7.254000000000001e-26
2655.0,8.724e-35
2660.0,7.345e-32
2665.0,7.006e-45
2670.0,0.0
2675.0,3.5029999999999997e-44
2680.0,1.4890000000000002e-30
2685.0,1.423e-31
2690.0,5.323e-31
2695.0,2.0879999999999998e-33
2700.0,6.083e-29
2705.0,1.7250000000000003e-26
2710.0,1.3740000000000001e-31
2715.0,1.735e-29
2720.0,0.0
2725.0,3.884e-27
2730.0,1.132e-24
2735.0,1.2910000000000001e-26
2740.0,2.3330000000000002e-32
2745.0,3.008e-27
2750.0,1.6860000000000003e-26
2755.0,2.712e-28
2760.0,4.063e-23
2765.0,1.9069999999999998e-29
2770.0,9.372e-27
2775.0,4.759e-19
2780.0,5.387e-21
2785.0,2.022e-20
2790.0,5.338e-18
2795.0,1.015e-18
2800.0,2.774e-14
2805.0,6.055e-17
2810.0,2.428e-13
2815.0,7.243e-14
2820.0,8.849e-16
2825.0,7.778e-12
2830.0,1.688e-10
2835.0,2.325e-15
2840.0,1.597e-11
2845.0,1.722e-09
2850.0,2.98e-11
2855.0,1.19e-11
2860.0,6.189e-10
2865.0,4.563e-09
2870.0,8.565e-10
2875.0,1.111e-08
2880.0,7e-09
2885.0,1.153e-08
2890.0,4.902e-09
2895.0,8.355e-08
2900.0,2.329e-08
2905.0,2.696e-09
2910.0,8.523e-08
2915.0,3.617e-08
2920.0,8.975e-08
2925.0,3.2e-08
2930.0,1.939e-07
2935.0,2.136e-07
2940.0,4.782e-08
2945.0,4.105e-08
2950.0,1.657e-07
2955.0,7.379e-08
2960.0,1.479e-07
2965.0,2.559e-07
2970.0,9.711e-09
2975.0,2.466e-08
2980.0,3.841e-08
2985.0,2.492e-07
2990.0,7.949e-07
2995.0,1.322e-07
3000.0,2.746e-07
3005.0,8.425e-08
3010.0,2.613e-07
3015.0,1.766e-07
3020.0,1.51e-08
3025.0,2.367e-07
3030.0,1.921e-07
3035.0,6.896e-08
3040.0,5.409e-08
3045.0,1.16e-07
3050.0,2.624e-08
3055.0,6.42e-09
3060.0,1.82e-07
3065.0,7.642e-08
3070.0,4.286e-08
3075.0,1.713e-07
3080.0,9.758e-08
3085.0,4.308e-08
3090.0,5.859e-08
3095.0,1.441e-08
3100.0,1.175e-07
3105.0,2.198e-08
3110.0,1.837e-08
3115.0,5.511e-08
3120.0,3.028e-07
3125.0,3.172e-07
3130.0,1.755e-07
3135.0,4.966e-07
3140.0,8.59e-08
3145.0,8.359e-08
3150.0,1.992e-07
3155.0,2.099e-07
3160.0,5.217e-07
3165.0,2.792e-06
3170.0,3.892e-06
3175.0,3.389e-07
3180.0,1.246e-06
3185.0,1.974e-07
3190.0,1.198e-07
3195.0,5.685e-08
3200.0,8.024e-09
3205.0,5.242e-09
3210.0,2.184e-09
3215.0,8.878e-09
3220.0,3.117e-08
3225.0,3.584e-09
3230.0,5.953e-09
3235.0,1.691e-07
3240.0,7.585e-08
3245.0,1.446e-08
3250.0,5.311e-08
3255.0,2.486e-07
3260.0,2.273e-08
3265.0,4.918e-08
3270.0,2.316e-08
3275.0,1.419e-07
3280.0,5.945e-08
3285.0,6.405e-07
3290.0,2.132e-07
3295.0,2.417e-08
3300.0,3.537e-08
3305.0,8.133e-08
3310.0,7.713e-08
3315.0,1.118e-10
3320.0,7.043e-10
3325.0,6.477e-08
3330.0,1.664e-07
3335.0,3.117e-07
3340.0,5.266e-07
3345.0,6.84e-08
3350.0,5.84e-07
3355.0,7.142e-08
3360.0,1.33e-07
3365.0,9.065e-07
3370.0,7.237e-08
3375.0,3.697e-06
3380.0,9.669e-08
3385.0,2.184e-06
3390.0,9.001e-07
3395.0,3.347e-06
3400.0,3.446e-05
3405.0,8.024e-08
3410.0,3.838e-06
3415.0,1.872e-07
3420.0,7.061e-05
3425.0,1.974e-06
3430.0,3.925e-07
3435.0,5.225e-05
3440.0,2.923e-07
3445.0,2.962e-05
3450.0,1.012e-05
3455.0,1.496e-06
3460.0,8.616e-05
3465.0,2.069e-06
3470.0,7.818e-05
3475.0,1.378e-05
3480.0,1.593e-05
3485.0,6.58e-05
3490.0,9.544e-06
3495.0,6.676e-05
3500.0,5.833e-05
3505.0,5.705e-05
3510.0,6.152e-05
3515.0,6.027e-05
3520.0,8.904e-05
3525.0,8.997e-05
3530.0,4.859e-05
3535.0,8.843e-06
3540.0,6.717e-06
3545.0,7.136e-06
3550.0,4.447e-05
3555.0,1.337e-05
3560.0,6.319e-05
3565.0,3.723e-05
3570.0,1.164e-05
3575.0,6.431e-06
3580.0,3.653e-05
3585.0,1.171e-05
3590.0,2.669e-05
3595.0,5.888e-05
3600.0,7.829e-05
3605.0,4.004e-05
3610.0,3.029e-05
3615.0,6.178e-05
3620.0,0.0001714
3625.0,5.015e-05
3630.0,6.963e-05
3635.0,8.134e-05
3640.0,0.0001861
3645.0,6.162e-05
3650.0,7.105e-05
3655.0,0.0001365
3660.0,0.0001608
3665.0,5.013e-05
3670.0,2.544e-05
3675.0,1.335e-06
3680.0,1.847e-05
3685.0,4.258e-05
3690.0,3.511e-05
3695.0,0.0001012
3700.0,0.000195
3705.0,0.000174
3710.0,5.885e-05
3715.0,8.418e-05
3720.0,0.0001499
3725.0,0.0001688
3730.0,8.158e-05
3735.0,4.567e-05
3740.0,7.646e-05
3745.0,0.0001571
3750.0,0.0001007
3755.0,8.047e-05
3760.0,5.522e-05
3765.0,5.684e-05
3770.0,8.913e-05
3775.0,8.955e-05
3780.0,0.0001281
3785.0,7.938e-05
3790.0,3.955e-05
3795.0,9.953e-05
3800.0,0.0001653
3805.0,0.0001252
3810.0,6.141e-05
3815.0,5.343e-05
3820.0,0.0001613
3825.0,0.000161
3830.0,0.0001673
3835.0,4.138e-05
3840.0,0.0001017
3845.0,7.397e-05
3850.0,7.623e-05
3855.0,5.996e-05
3860.0,2.396e-05
3865.0,2.289e-05
3870.0,7.105e-06
3875.0,2.486e-06
3880.0,1.482e-06
3885.0,2.307e-06
3890.0,2.85e-06
3895.0,9.286e-06
3900.0,2.865e-05
3905.0,2.387e-05
3910.0,5.536e-06
3915.0,4.305e-06
3920.0,4.575e-06
3925.0,4.123e-06
3930.0,6.11e-06
3935.0,1.116e-05
3940.0,1.355e-05
3945.0,1.837e-05
3950.0,2.501e-05
3955.0,2.994e-05
3960.0,3.473e-05
3965.0,3.919e-05
3970.0,3.533e-05
3975.0,2.629e-05
3980.0,2.32e-05
3985.0,2.635e-05
3990.0,2.359e-05
3995.0,1.876e-05
4000.0,1.487e-05
