interpolation:linear
wavelength,value
280.0,1.548e-23
280.5,5.411999999999999e-22
281.0,2.956e-21
281.5,9.965000000000001e-20
282.0,8.206e-19
282.5,3.183e-18
283.0,1.424e-17
283.5,2.269e-17
284.0,3.358e-16
284.5,9.651e-16
285.0,4.278e-16
285.5,2.382e-15
286.0,9.854e-15
286.5,4.673e-14
287.0,1.38e-13
287.5,5.511e-13
288.0,9.999e-12
288.5,1.825e-11
289.0,3.879e-11
289.5,1.024e-10
290.0,2.643e-10
290.5,5.136e-10
291.0,1.056e-09
291.5,2.921e-09
292.0,5.665e-09
292.5,7.481e-09
293.0,1.504e-08
293.5,3.417e-08
294.0,5.08e-08
294.5,1.016e-08
295.0,1.7e-08
295.5,2.704e-08
296.0,4.627e-08
296.5,5.769e-08
297.0,7.117e-08
297.5,1.667e-07
298.0,2.345e-07
298.5,2.162e-07
299.0,4.382e-07
299.5,6.282e-07
300.0,6.37e-07
300.5,8.494e-07
301.0,1.346e-06
301.5,1.905e-06
302.0,1.534e-06
302.5,1.636e-06
303.0,3.017e-06
303.5,3.846e-06
304.0,3.615e-06
304.5,5.464e-06
305.0,8.668e-06
305.5,1.037e-05
306.0,1.024e-05
306.5,1.323e-05
307.0,2.159e-05
307.5,3.198e-05
308.0,3.444e-05
308.5,4.321e-05
309.0,4.072e-05
309.5,4.339e-05
310.0,4.319e-05
310.5,6.996e-05
311.0,8.833e-05
311.5,8.568e-05
312.0,8.922e-05
312.5,0.0001132
313.0,0.000126
313.5,0.0001194
314.0,0.0001596
314.5,0.00017
315.0,0.0002312
315.5,0.0001765
316.0,0.0001799
316.5,0.0002969
317.0,0.0003678
317.5,0.0003677
318.0,0.000316
318.5,0.0004761
319.0,0.0006252
319.5,0.0004336
320.0,0.0005116
320.5,0.0007848
321.0,0.0008475
321.5,0.0008289
322.0,0.000718
322.5,0.0006312
323.0,0.000719
323.5,0.001807
324.0,0.002196
324.5,0.00201
325.0,0.0009272
325.5,0.001336
326.0,0.00312
326.5,0.003552
327.0,0.003377
327.5,0.00307
328.0,0.002291
328.5,0.002978
329.0,0.004268
329.5,0.005154
330.0,0.004945
330.5,0.003423
331.0,0.003341
331.5,0.003728
332.0,0.004767
332.5,0.005081
333.0,0.004854
333.5,0.003881
334.0,0.003893
334.5,0.005173
335.0,0.005261
335.5,0.00657
336.0,0.004545
336.5,0.004789
337.0,0.003707
337.5,0.004512
338.0,0.004936
338.5,0.006181
339.0,0.006168
339.5,0.005903
340.0,0.006412
340.5,0.005845
341.0,0.006126
341.5,0.005708
342.0,0.00685
342.5,0.006436
343.0,0.007016
343.5,0.006566
344.0,0.004511
344.5,0.004846
345.0,0.006527
345.5,0.006713
346.0,0.005734
346.5,0.006514
347.0,0.00694
347.5,0.005598
348.0,0.006443
348.5,0.006477
349.0,0.006025
349.5,0.00596
350.0,0.00738
350.5,0.007785
351.0,0.006923
351.5,0.00665
352.0,0.007198
352.5,0.005652
353.0,0.007148
353.5,0.007663
354.0,0.007972
354.5,0.008087
355.0,0.008047
355.5,0.007281
356.0,0.00763
356.5,0.006517
357.0,0.005384
357.5,0.006598
358.0,0.005234
358.5,0.004476
359.0,0.006256
359.5,0.007948
360.0,0.008436
360.5,0.006755
361.0,0.006167
361.5,0.007109
362.0,0.006153
362.5,0.00852
363.0,0.007655
363.5,0.007052
364.0,0.008628
364.5,0.007375
365.0,0.007511
365.5,0.009431
366.0,0.009997
366.5,0.009399
367.0,0.009157
367.5,0.009506
368.0,0.008319
368.5,0.008393
369.0,0.009068
369.5,0.00967
370.0,0.01031
370.5,0.008008
371.0,0.008559
371.5,0.01071
372.0,0.007112
372.5,0.00853
373.0,0.008678
373.5,0.005647
374.0,0.008208
374.5,0.006799
375.0,0.006612
375.5,0.009874
376.0,0.008188
376.5,0.008487
377.0,0.008988
377.5,0.01052
378.0,0.01141
378.5,0.01078
379.0,0.008901
379.5,0.008132
380.0,0.008457
380.5,0.01025
381.0,0.01027
381.5,0.008143
382.0,0.007234
382.5,0.006168
383.0,0.005712
383.5,0.005503
384.0,0.006072
384.5,0.008934
385.0,0.008862
385.5,0.008255
386.0,0.007072
386.5,0.009292
387.0,0.007723
387.5,0.008676
388.0,0.008013
388.5,0.007922
389.0,0.008554
389.5,0.01036
390.0,0.0104
390.5,0.009576
391.0,0.01127
391.5,0.0115
392.0,0.009691
392.5,0.008678
393.0,0.00483
393.5,0.003512
394.0,0.007148
394.5,0.00909
395.0,0.01109
395.5,0.01127
396.0,0.009776
396.5,0.005717
397.0,0.004292
397.5,0.008731
398.0,0.01223
398.5,0.01264
399.0,0.0137
399.5,0.01365
400.0,0.01418
401.0,0.01401
402.0,0.01478
403.0,0.01405
404.0,0.01384
405.0,0.01384
406.0,0.01362
407.0,0.01339
408.0,0.01391
409.0,0.01489
410.0,0.01301
411.0,0.0141
412.0,0.01515
413.0,0.01479
414.0,0.01497
415.0,0.01501
416.0,0.01526
417.0,0.01489
418.0,0.01461
419.0,0.01481
420.0,0.01475
421.0,0.01543
422.0,0.01466
423.0,0.0143
424.0,0.01511
425.0,0.01508
426.0,0.01469
427.0,0.01442
428.0,0.01406
429.0,0.01333
430.0,0.01167
431.0,0.01156
432.0,0.01491
433.0,0.01498
434.0,0.01392
435.0,0.01454
436.0,0.01639
437.0,0.01617
438.0,0.0147
439.0,0.01517
440.0,0.01563
441.0,0.01616
442.0,0.0173
443.0,0.01685
444.0,0.01723
445.0,0.01689
446.0,0.01616
447.0,0.01748
448.0,0.01774
449.0,0.01778
450.0,0.01825
451.0,0.01892
452.0,0.01824
453.0,0.01717
454.0,0.01793
455.0,0.01801
456.0,0.01841
457.0,0.01866
458.0,0.01795
459.0,0.01779
460.0,0.01777
461.0,0.01813
462.0,0.01828
463.0,0.01819
464.0,0.01796
465.0,0.0178
466.0,0.018
467.0,0.01766
468.0,0.01782
469.0,0.01787
470.0,0.01727
471.0,0.01725
472.0,0.01819
473.0,0.01796
474.0,0.01796
475.0,0.01806
476.0,0.01742
477.0,0.01737
478.0,0.01776
479.0,0.01755
480.0,0.0175
481.0,0.01776
482.0,0.01783
483.0,0.01765
484.0,0.01735
485.0,0.0166
486.0,0.01458
487.0,0.01532
488.0,0.01681
489.0,0.01683
490.0,0.01768
491.0,0.01734
492.0,0.01637
493.0,0.01691
494.0,0.01709
495.0,0.01723
496.0,0.01731
497.0,0.01751
498.0,0.0166
499.0,0.0167
500.0,0.0161
501.0,0.01569
502.0,0.01532
503.0,0.0158
504.0,0.01525
505.0,0.01583
506.0,0.01635
507.0,0.01559
508.0,0.01517
509.0,0.01567
510.0,0.01566
511.0,0.01612
512.0,0.01631
513.0,0.01543
514.0,0.0153
515.0,0.01512
516.0,0.01505
517.0,0.01336
518.0,0.01403
519.0,0.0147
520.0,0.0152
521.0,0.0153
522.0,0.01525
523.0,0.01494
524.0,0.01537
525.0,0.01543
526.0,0.01467
527.0,0.01371
528.0,0.01441
529.0,0.0151
530.0,0.01481
531.0,0.01497
532.0,0.01441
533.0,0.01398
534.0,0.01441
535.0,0.01476
536.0,0.01494
537.0,0.01439
538.0,0.01464
539.0,0.0145
540.0,0.01385
541.0,0.01382
542.0,0.01421
543.0,0.01409
544.0,0.01424
545.0,0.01419
546.0,0.01418
547.0,0.01422
548.0,0.01409
549.0,0.01414
550.0,0.01431
551.0,0.01414
552.0,0.01424
553.0,0.01397
554.0,0.01428
555.0,0.01428
556.0,0.01406
557.0,0.01357
558.0,0.0134
559.0,0.01307
560.0,0.01315
561.0,0.01323
562.0,0.01304
563.0,0.0133
564.0,0.01286
565.0,0.01268
566.0,0.01243
567.0,0.01256
568.0,0.01225
569.0,0.0118
570.0,0.01174
571.0,0.01165
572.0,0.01177
573.0,0.01184
574.0,0.01173
575.0,0.01145
576.0,0.01133
577.0,0.01147
578.0,0.01139
579.0,0.0116
580.0,0.01207
581.0,0.01235
582.0,0.01276
583.0,0.01294
584.0,0.01316
585.0,0.01291
586.0,0.01268
587.0,0.01287
588.0,0.01238
589.0,0.01022
590.0,0.01061
591.0,0.01168
592.0,0.01123
593.0,0.01174
594.0,0.0115
595.0,0.01104
596.0,0.01211
597.0,0.0116
598.0,0.01174
599.0,0.01191
600.0,0.01194
601.0,0.01194
602.0,0.01191
603.0,0.01221
604.0,0.0125
605.0,0.01253
606.0,0.01255
607.0,0.01275
608.0,0.01271
609.0,0.01283
610.0,0.01285
611.0,0.01302
612.0,0.01308
613.0,0.01301
614.0,0.01292
615.0,0.01328
616.0,0.01292
617.0,0.01295
618.0,0.01351
619.0,0.01341
620.0,0.01352
621.0,0.01356
622.0,0.01341
623.0,0.0132
624.0,0.01295
625.0,0.01288
626.0,0.01301
627.0,0.01294
628.0,0.009872
629.0,0.01165
630.0,0.01131
631.0,0.01233
632.0,0.01247
633.0,0.01318
634.0,0.0134
635.0,0.01384
636.0,0.01384
637.0,0.01428
638.0,0.01467
639.0,0.01466
640.0,0.01474
641.0,0.01488
642.0,0.015
643.0,0.01531
644.0,0.01541
645.0,0.01528
646.0,0.01475
647.0,0.01356
648.0,0.01369
649.0,0.0132
650.0,0.01447
651.0,0.0154
652.0,0.01371
653.0,0.0154
654.0,0.01548
655.0,0.01405
656.0,0.01283
657.0,0.0135
658.0,0.01537
659.0,0.01595
660.0,0.01605
661.0,0.01651
662.0,0.01685
663.0,0.01662
664.0,0.01686
665.0,0.01694
666.0,0.01708
667.0,0.01717
668.0,0.01736
669.0,0.0177
670.0,0.01773
671.0,0.01782
672.0,0.01776
673.0,0.01813
674.0,0.01815
675.0,0.01807
676.0,0.01828
677.0,0.01819
678.0,0.01832
679.0,0.0181
680.0,0.01829
681.0,0.01818
682.0,0.01819
683.0,0.01814
684.0,0.018
685.0,0.01833
686.0,0.01802
687.0,0.005481
688.0,0.006674
689.0,0.006714
690.0,0.007388
691.0,0.008652
692.0,0.01038
693.0,0.01068
694.0,0.0114
695.0,0.01358
696.0,0.01373
697.0,0.01773
698.0,0.01661
699.0,0.01434
700.0,0.01423
701.0,0.01329
702.0,0.01373
703.0,0.01461
704.0,0.01606
705.0,0.01595
706.0,0.01639
707.0,0.01651
708.0,0.01706
709.0,0.01781
710.0,0.01678
711.0,0.01724
712.0,0.01794
713.0,0.01687
714.0,0.01748
715.0,0.01616
716.0,0.01546
717.0,0.008714
718.0,0.008449
719.0,0.008072
720.0,0.007619
721.0,0.01021
722.0,0.01297
723.0,0.0117
724.0,0.009745
725.0,0.009055
726.0,0.008654
727.0,0.01098
728.0,0.008174
729.0,0.009806
730.0,0.009604
731.0,0.009049
732.0,0.01127
733.0,0.01347
734.0,0.01479
735.0,0.01425
736.0,0.01334
737.0,0.0139
738.0,0.01649
739.0,0.01616
740.0,0.01739
741.0,0.0176
742.0,0.0182
743.0,0.01866
744.0,0.01878
745.0,0.01921
746.0,0.01931
747.0,0.01948
748.0,0.01949
749.0,0.01933
750.0,0.01934
751.0,0.01916
752.0,0.0193
753.0,0.01946
754.0,0.01947
755.0,0.01932
756.0,0.0194
757.0,0.01941
758.0,0.01907
759.0,0.01621
760.0,0.001052
761.0,0.0005613
762.0,0.003085
763.0,0.00157
764.0,0.002322
765.0,0.003053
766.0,0.003745
767.0,0.005252
768.0,0.009489
769.0,0.01171
770.0,0.01554
771.0,0.01773
772.0,0.01851
773.0,0.01884
774.0,0.01893
775.0,0.01893
776.0,0.01924
777.0,0.01903
778.0,0.01889
779.0,0.01893
780.0,0.01887
781.0,0.01892
782.0,0.01907
783.0,0.01879
784.0,0.01896
785.0,0.01872
786.0,0.01867
787.0,0.01684
788.0,0.01649
789.0,0.01609
790.0,0.01418
791.0,0.01556
792.0,0.01581
793.0,0.0154
794.0,0.01773
795.0,0.01745
796.0,0.01427
797.0,0.01509
798.0,0.01749
799.0,0.01673
800.0,0.01522
801.0,0.01468
802.0,0.01489
803.0,0.01392
804.0,0.01466
805.0,0.01541
806.0,0.01744
807.0,0.01674
808.0,0.01664
809.0,0.015
810.0,0.01482
811.0,0.01254
812.0,0.01154
813.0,0.01087
814.0,0.007592
815.0,0.007529
816.0,0.008101
817.0,0.008062
818.0,0.007848
819.0,0.008639
820.0,0.009621
821.0,0.01214
822.0,0.01067
823.0,0.004031
824.0,0.00956
825.0,0.01372
826.0,0.01005
827.0,0.01237
828.0,0.007386
829.0,0.01145
830.0,0.01112
831.0,0.01082
832.0,0.01022
833.0,0.01106
834.0,0.01032
835.0,0.01405
836.0,0.0118
837.0,0.01387
838.0,0.01237
839.0,0.01454
840.0,0.01541
841.0,0.01446
842.0,0.01523
843.0,0.01663
844.0,0.01579
845.0,0.01692
846.0,0.01738
847.0,0.01731
848.0,0.01669
849.0,0.01624
850.0,0.01549
851.0,0.0157
852.0,0.01615
853.0,0.01592
854.0,0.01353
855.0,0.01516
856.0,0.01651
857.0,0.01721
858.0,0.01696
859.0,0.01737
860.0,0.01756
861.0,0.01742
862.0,0.01778
863.0,0.01817
864.0,0.01734
865.0,0.01724
866.0,0.01551
867.0,0.0162
868.0,0.01766
869.0,0.01733
870.0,0.01785
871.0,0.01759
872.0,0.01759
873.0,0.01756
874.0,0.01737
875.0,0.01696
876.0,0.01714
877.0,0.0173
878.0,0.01747
879.0,0.01721
880.0,0.01678
881.0,0.01631
882.0,0.01641
883.0,0.01678
884.0,0.01657
885.0,0.01649
886.0,0.01475
887.0,0.0159
888.0,0.01557
889.0,0.01673
890.0,0.01545
891.0,0.01624
892.0,0.01372
893.0,0.01279
894.0,0.0101
895.0,0.007765
896.0,0.007195
897.0,0.005836
898.0,0.006367
899.0,0.003494
900.0,0.006051
901.0,0.003726
902.0,0.004079
903.0,0.004881
904.0,0.009391
905.0,0.008311
906.0,0.007608
907.0,0.004446
908.0,0.005368
909.0,0.005257
910.0,0.003327
911.0,0.004708
912.0,0.006691
913.0,0.00348
914.0,0.005059
915.0,0.003363
916.0,0.0039
917.0,0.004649
918.0,0.003503
919.0,0.005183
920.0,0.007351
921.0,0.006941
922.0,0.005105
923.0,0.006946
924.0,0.004676
925.0,0.004404
926.0,0.004424
927.0,0.005368
928.0,0.002055
929.0,0.001618
930.0,0.001092
931.0,0.001015
932.0,0.0007134
933.0,0.0005731
934.0,0.0003106
935.0,0.0005823
936.0,0.0003606
937.0,0.0003638
938.0,0.0004459
939.0,0.0009551
940.0,0.001193
941.0,0.0008474
942.0,0.000985
943.0,0.0006333
944.0,0.0006725
945.0,0.0008623
946.0,0.0004275
947.0,0.0008552
948.0,0.0006292
949.0,0.001168
950.0,0.0003094
951.0,0.001152
952.0,0.0006216
953.0,0.0007922
954.0,0.0009731
955.0,0.0009288
956.0,0.0008624
957.0,0.0006196
958.0,0.001338
959.0,0.0009363
960.0,0.001118
961.0,0.001398
962.0,0.001295
963.0,0.001916
964.0,0.001643
965.0,0.001664
966.0,0.002087
967.0,0.002261
968.0,0.007064
969.0,0.004601
970.0,0.005601
971.0,0.006603
972.0,0.00667
973.0,0.003532
974.0,0.003302
975.0,0.004345
976.0,0.003693
977.0,0.006566
978.0,0.004264
979.0,0.005264
980.0,0.005132
981.0,0.007149
982.0,0.006167
983.0,0.005534
984.0,0.009444
985.0,0.005773
986.0,0.01206
987.0,0.009218
988.0,0.009996
989.0,0.01297
990.0,0.009032
991.0,0.01289
992.0,0.01321
993.0,0.01071
994.0,0.01349
995.0,0.01389
996.0,0.01346
997.0,0.01356
998.0,0.01335
999.0,0.01344
1000.0,0.01308
1001.0,0.01363
1002.0,0.01093
1003.0,0.01338
1004.0,0.01218
1005.0,0.01251
1006.0,0.01297
1007.0,0.01318
1008.0,0.01283
1009.0,0.01234
1010.0,0.01224
1011.0,0.01302
1012.0,0.0128
1013.0,0.01328
1014.0,0.01319
1015.0,0.01311
1016.0,0.01292
1017.0,0.0128
1018.0,0.0131
1019.0,0.01182
1020.0,0.01295
1021.0,0.01306
1022.0,0.01266
1023.0,0.01283
1024.0,0.01176
1025.0,0.01301
1026.0,0.01258
1027.0,0.01287
1028.0,0.01267
1029.0,0.01231
1030.0,0.01271
1031.0,0.01268
1032.0,0.01259
1033.0,0.01249
1034.0,0.01246
1035.0,0.01251
1036.0,0.01239
1037.0,0.01228
1038.0,0.01228
1039.0,0.01218
1040.0,0.01211
1041.0,0.01204
1042.0,0.01195
1043.0,0.01184
1044.0,0.0118
1045.0,0.01157
1046.0,0.01137
1047.0,0.01138
1048.0,0.01134
1049.0,0.0112
1050.0,0.01104
1051.0,0.0109
1052.0,0.01074
1053.0,0.01051
1054.0,0.01037
1055.0,0.0102
1056.0,0.009964
1057.0,0.009794
1058.0,0.009405
1059.0,0.00923
1060.0,0.009143
1061.0,0.00903
1062.0,0.008987
1063.0,0.008698
1064.0,0.008858
1065.0,0.008412
1066.0,0.008527
1067.0,0.008602
1068.0,0.008179
1069.0,0.008178
1070.0,0.008531
1071.0,0.009088
1072.0,0.008636
1073.0,0.008566
1074.0,0.009525
1075.0,0.007405
1076.0,0.009584
1077.0,0.008505
1078.0,0.007633
1079.0,0.009869
1080.0,0.008199
1081.0,0.00707
1082.0,0.008874
1083.0,0.009186
1084.0,0.007079
1085.0,0.008512
1086.0,0.006358
1087.0,0.00703
1088.0,0.009042
1089.0,0.006894
1090.0,0.006462
1091.0,0.008244
1092.0,0.008557
1093.0,0.004511
1094.0,0.007246
1095.0,0.004279
1096.0,0.003623
1097.0,0.008583
1098.0,0.003603
1099.0,0.003457
1100.0,0.002547
1101.0,0.003009
1102.0,0.002437
1103.0,0.001889
1104.0,0.002301
1105.0,0.00268
1106.0,0.0009464
1107.0,0.002553
1108.0,0.001134
1109.0,0.001233
1110.0,0.001643
1111.0,0.0005633
1112.0,0.001416
1113.0,0.0004029
1114.0,0.0004416
1115.0,0.0003459
1116.0,0.0002483
1117.0,8.905e-05
1118.0,0.0002696
1119.0,0.0001313
1120.0,0.0001646
1121.0,0.0002185
1122.0,9.049e-05
1123.0,0.0001473
1124.0,0.0001239
1125.0,0.0001614
1126.0,5.485e-05
1127.0,0.0001809
1128.0,0.0001066
1129.0,0.000113
1130.0,7.36e-05
1131.0,0.0003421
1132.0,0.0002668
1133.0,0.0001667
1134.0,4.154e-05
1135.0,1.557e-05
1136.0,0.0001371
1137.0,0.0003286
1138.0,0.0002304
1139.0,0.0003568
1140.0,0.0002895
1141.0,0.0002171
1142.0,0.0002501
1143.0,0.0003576
1144.0,0.000122
1145.0,0.0001545
1146.0,0.0001661
1147.0,5.712e-05
1148.0,0.0003045
1149.0,0.0002393
1150.0,0.000129
1151.0,0.0002194
1152.0,0.0002721
1153.0,0.0002705
1154.0,0.0001458
1155.0,0.0003649
1156.0,0.0003305
1157.0,0.0004449
1158.0,0.0004214
1159.0,0.0004824
1160.0,0.0004612
1161.0,0.001004
1162.0,0.001259
1163.0,0.00231
1164.0,0.001958
1165.0,0.001074
1166.0,0.00192
1167.0,0.002037
1168.0,0.002011
1169.0,0.002387
1170.0,0.00335
1171.0,0.002705
1172.0,0.004383
1173.0,0.002906
1174.0,0.001179
1175.0,0.003691
1176.0,0.006374
1177.0,0.004391
1178.0,0.002109
1179.0,0.005966
1180.0,0.004585
1181.0,0.003312
1182.0,0.001084
1183.0,0.003581
1184.0,0.003897
1185.0,0.002862
1186.0,0.004508
1187.0,0.003163
1188.0,0.001091
1189.0,0.003296
1190.0,0.004862
1191.0,0.003104
1192.0,0.005133
1193.0,0.005275
1194.0,0.004829
1195.0,0.003386
1196.0,0.002681
1197.0,0.004901
1198.0,0.004625
1199.0,0.001908
1200.0,0.004035
1201.0,0.002935
1202.0,0.004316
1203.0,0.003041
1204.0,0.003837
1205.0,0.005503
1206.0,0.006708
1207.0,0.003744
1208.0,0.004311
1209.0,0.004522
1210.0,0.005897
1211.0,0.004852
1212.0,0.00285
1213.0,0.005504
1214.0,0.003402
1215.0,0.003043
1216.0,0.006115
1217.0,0.005395
1218.0,0.00602
1219.0,0.005624
1220.0,0.005973
1221.0,0.006647
1222.0,0.006078
1223.0,0.00581
1224.0,0.005188
1225.0,0.005948
1226.0,0.0069
1227.0,0.004499
1228.0,0.007722
1229.0,0.006731
1230.0,0.00637
1231.0,0.008122
1232.0,0.008065
1233.0,0.005351
1234.0,0.00871
1235.0,0.008121
1236.0,0.008612
1237.0,0.007435
1238.0,0.008587
1239.0,0.008496
1240.0,0.008673
1241.0,0.008033
1242.0,0.008487
1243.0,0.0085
1244.0,0.008248
1245.0,0.008474
1246.0,0.008471
1247.0,0.008151
1248.0,0.007844
1249.0,0.008145
1250.0,0.007821
1251.0,0.007209
1252.0,0.007898
1253.0,0.006655
1254.0,0.005978
1255.0,0.007633
1256.0,0.005455
1257.0,0.005074
1258.0,0.00655
1259.0,0.003943
1260.0,0.004219
1261.0,0.002211
1262.0,0.001571
1263.0,0.001572
1264.0,0.0007503
1265.0,0.001554
1266.0,0.001015
1267.0,0.001352
1268.0,0.0008394
1269.0,0.0001839
1270.0,0.001196
1271.0,0.002421
1272.0,0.002495
1273.0,0.002308
1274.0,0.002625
1275.0,0.002856
1276.0,0.003321
1277.0,0.003949
1278.0,0.004881
1279.0,0.004947
1280.0,0.005105
1281.0,0.005499
1282.0,0.006052
1283.0,0.006299
1284.0,0.006599
1285.0,0.006748
1286.0,0.007191
1287.0,0.006642
1288.0,0.006793
1289.0,0.004539
1290.0,0.006753
1291.0,0.007235
1292.0,0.003832
1293.0,0.006543
1294.0,0.006135
1295.0,0.004565
1296.0,0.003563
1297.0,0.002995
1298.0,0.004419
1299.0,0.006186
1300.0,0.002421
1301.0,0.002312
1302.0,0.004373
1303.0,0.003357
1304.0,0.00106
1305.0,0.003855
1306.0,0.003112
1307.0,0.001555
1308.0,0.002663
1309.0,0.002742
1310.0,0.001602
1311.0,0.002867
1312.0,0.002174
1313.0,0.001547
1314.0,0.0007136
1315.0,0.000696
1316.0,0.0023
1317.0,0.002555
1318.0,0.002931
1319.0,0.0009432
1320.0,0.0006672
1321.0,0.001287
1322.0,0.0007378
1323.0,0.0002774
1324.0,0.0009256
1325.0,0.001244
1326.0,0.0008644
1327.0,0.0006436
1328.0,0.0002727
1329.0,0.0001276
1330.0,0.0001873
1331.0,9.593e-05
1332.0,9.431e-05
1333.0,0.0001357
1334.0,0.0001522
1335.0,0.0001853
1336.0,0.0001306
1337.0,0.0001205
1338.0,0.0001215
1339.0,0.0001216
1340.0,0.0001201
1341.0,0.0001069
1342.0,0.0001132
1343.0,7.431e-05
1344.0,4.439e-05
1345.0,6.378e-05
1346.0,3.146e-05
1347.0,3.187e-05
1348.0,2.055e-06
1349.0,7.372e-06
1350.0,7.642e-06
1351.0,1.847e-06
1352.0,4.97e-07
1353.0,2.53e-08
1354.0,8.695e-08
1355.0,7.002e-10
1356.0,1.225e-08
1357.0,1.862e-08
1358.0,8.222e-10
1359.0,1.036e-10
1360.0,3.744e-10
1361.0,4.188e-13
1362.0,1.146e-15
1363.0,5.035e-10
1364.0,2.079e-10
1365.0,4.001e-16
1366.0,2.182e-09
1367.0,8.909e-10
1368.0,3.09e-18
1369.0,7.662e-11
1370.0,3.774e-11
1371.0,2.139e-12
1372.0,4.833e-10
1373.0,9.739e-09
1374.0,4.517e-08
1375.0,8.193e-08
1376.0,7.348e-08
1377.0,3.356e-08
1378.0,3.282e-07
1379.0,1.403e-08
1380.0,2.016e-08
1381.0,5.251e-10
1382.0,4.239e-10
1383.0,6.337e-12
1384.0,8.31e-11
1385.0,3.974e-10
1386.0,3.738e-10
1387.0,4.522e-08
1388.0,8.894e-10
1389.0,1.527e-07
1390.0,1.311e-07
1391.0,8.716e-08
1392.0,5.65e-09
1393.0,2.993e-08
1394.0,1.543e-08
1395.0,1.131e-10
1396.0,5.465e-13
1397.0,1.179e-08
1398.0,3.486e-07
1399.0,2.205e-07
1400.0,2.337e-13
1401.0,9.698e-13
1402.0,6.109e-07
1403.0,7.653e-07
1404.0,2.325e-07
1405.0,5.357e-11
1406.0,6.01e-07
1407.0,5.297e-08
1408.0,4.891e-07
1409.0,1.63e-07
1410.0,1.305e-07
1411.0,6.583e-07
1412.0,8.882e-07
1413.0,9.245e-06
1414.0,1.019e-07
1415.0,4.868e-08
1416.0,1.528e-05
1417.0,4.513e-06
1418.0,5.11e-06
1419.0,7.865e-07
1420.0,3.106e-06
1421.0,3.35e-06
1422.0,1.965e-05
1423.0,3.769e-06
1424.0,7.074e-06
1425.0,1.033e-05
1426.0,1.183e-05
1427.0,2.2e-05
1428.0,1.54e-06
1429.0,1.62e-05
1430.0,2.796e-05
1431.0,3.074e-05
1432.0,1.197e-06
1433.0,1.929e-05
1434.0,9.703e-06
1435.0,9.402e-06
1436.0,1.852e-05
1437.0,1.416e-05
1438.0,5.845e-06
1439.0,2.517e-05
1440.0,1.879e-05
1441.0,1.406e-05
1442.0,1.557e-05
1443.0,1.987e-05
1444.0,2.766e-05
1445.0,2.125e-05
1446.0,9.425e-06
1447.0,1.486e-05
1448.0,5.264e-05
1449.0,4.523e-05
1450.0,1.095e-05
1451.0,4.311e-06
1452.0,2.662e-05
1453.0,3.509e-05
1454.0,6.193e-05
1455.0,2.842e-05
1456.0,3.788e-05
1457.0,5.168e-05
1458.0,6.319e-05
1459.0,7.382e-05
1460.0,3.753e-05
1461.0,3.828e-05
1462.0,5.704e-05
1463.0,1.788e-05
1464.0,6.842e-05
1465.0,4.094e-05
1466.0,2.689e-05
1467.0,1.376e-05
1468.0,3.183e-05
1469.0,3.949e-05
1470.0,1.897e-05
1471.0,6.727e-06
1472.0,1.803e-05
1473.0,2.803e-05
1474.0,4.204e-05
1475.0,8.206e-05
1476.0,2.793e-05
1477.0,2.785e-05
1478.0,2.608e-05
1479.0,5.114e-05
1480.0,2.386e-05
1481.0,4.805e-05
1482.0,2.337e-05
1483.0,6.352e-05
1484.0,6.53e-05
1485.0,5.321e-05
1486.0,5.081e-05
1487.0,2.256e-05
1488.0,4.231e-05
1489.0,9.374e-05
1490.0,0.0001512
1491.0,0.0001859
1492.0,8.107e-05
1493.0,0.0001448
1494.0,0.000347
1495.0,0.0001995
1496.0,0.0001445
1497.0,0.0008223
1498.0,0.0004737
1499.0,0.0004524
1500.0,0.001624
1501.0,0.001447
1502.0,0.001366
1503.0,0.0005363
1504.0,0.000102
1505.0,0.0004669
1506.0,0.002046
1507.0,0.001843
1508.0,0.00192
1509.0,0.0007047
1510.0,0.002515
1511.0,0.001691
1512.0,0.002655
1513.0,0.001151
1514.0,0.001013
1515.0,0.003021
1516.0,0.00263
1517.0,0.001652
1518.0,0.002241
1519.0,0.001496
1520.0,0.002238
1521.0,0.004681
1522.0,0.002964
1523.0,0.004877
1524.0,0.003594
1525.0,0.002399
1526.0,0.002551
1527.0,0.003108
1528.0,0.004387
1529.0,0.003693
1530.0,0.0029
1531.0,0.003446
1532.0,0.005008
1533.0,0.005346
1534.0,0.005433
1535.0,0.004835
1536.0,0.005052
1537.0,0.005106
1538.0,0.005338
1539.0,0.005089
1540.0,0.00534
1541.0,0.005208
1542.0,0.004964
1543.0,0.005367
1544.0,0.005181
1545.0,0.005528
1546.0,0.004914
1547.0,0.005227
1548.0,0.005255
1549.0,0.005561
1550.0,0.005387
1551.0,0.005223
1552.0,0.005212
1553.0,0.00539
1554.0,0.005177
1555.0,0.00538
1556.0,0.005265
1557.0,0.005403
1558.0,0.005396
1559.0,0.005337
1560.0,0.005281
1561.0,0.00535
1562.0,0.005155
1563.0,0.005081
1564.0,0.005039
1565.0,0.005386
1566.0,0.005114
1567.0,0.005185
1568.0,0.005054
1569.0,0.005324
1570.0,0.005294
1571.0,0.005284
1572.0,0.005266
1573.0,0.005101
1574.0,0.004788
1575.0,0.004665
1576.0,0.004235
1577.0,0.004071
1578.0,0.004107
1579.0,0.00383
1580.0,0.003994
1581.0,0.003956
1582.0,0.003968
1583.0,0.003874
1584.0,0.004546
1585.0,0.004731
1586.0,0.004624
1587.0,0.004481
1588.0,0.004878
1589.0,0.004786
1590.0,0.004691
1591.0,0.004926
1592.0,0.004808
1593.0,0.005109
1594.0,0.004986
1595.0,0.005021
1596.0,0.004765
1597.0,0.004577
1598.0,0.005073
1599.0,0.005068
1600.0,0.005162
1601.0,0.004906
1602.0,0.004759
1603.0,0.005136
1604.0,0.005061
1605.0,0.005117
1606.0,0.005033
1607.0,0.005097
1608.0,0.004727
1609.0,0.004882
1610.0,0.004745
1611.0,0.004819
1612.0,0.005
1613.0,0.004775
1614.0,0.004921
1615.0,0.004841
1616.0,0.004762
1617.0,0.004592
1618.0,0.004942
1619.0,0.004531
1620.0,0.004787
1621.0,0.004737
1622.0,0.004789
1623.0,0.004901
1624.0,0.004664
1625.0,0.004596
1626.0,0.004599
1627.0,0.004736
1628.0,0.00455
1629.0,0.004675
1630.0,0.004552
1631.0,0.004164
1632.0,0.004406
1633.0,0.003489
1634.0,0.004452
1635.0,0.003444
1636.0,0.004016
1637.0,0.004251
1638.0,0.002621
1639.0,0.004129
1640.0,0.002427
1641.0,0.003857
1642.0,0.004323
1643.0,0.00197
1644.0,0.004526
1645.0,0.002901
1646.0,0.001902
1647.0,0.004488
1648.0,0.00194
1649.0,0.003789
1650.0,0.003993
1651.0,0.001559
1652.0,0.003622
1653.0,0.004194
1654.0,0.002047
1655.0,0.003969
1656.0,0.003054
1657.0,0.003453
1658.0,0.00429
1659.0,0.003986
1660.0,0.003989
1661.0,0.004079
1662.0,0.003185
1663.0,0.004218
1664.0,0.004058
1665.0,0.001995
1666.0,0.0001978
1667.0,0.002028
1668.0,0.003623
1669.0,0.003786
1670.0,0.004169
1671.0,0.003649
1672.0,0.003995
1673.0,0.004149
1674.0,0.003252
1675.0,0.003472
1676.0,0.003946
1677.0,0.003373
1678.0,0.00266
1679.0,0.004064
1680.0,0.003575
1681.0,0.002661
1682.0,0.003969
1683.0,0.004105
1684.0,0.001535
1685.0,0.004049
1686.0,0.004027
1687.0,0.002691
1688.0,0.003712
1689.0,0.003818
1690.0,0.003452
1691.0,0.0017
1692.0,0.003138
1693.0,0.004042
1694.0,0.002796
1695.0,0.003679
1696.0,0.00397
1697.0,0.001104
1698.0,0.003475
1699.0,0.003591
1700.0,0.00292
1702.0,0.003444
1705.0,0.002687
1710.0,0.002381
1715.0,0.002682
1720.0,0.00283
1725.0,0.001609
1730.0,0.002293
1735.0,0.001791
1740.0,0.001896
1745.0,0.002095
1750.0,0.001211
1755.0,0.001433
1760.0,0.001019
1765.0,0.0007406
1770.0,0.0005719
1775.0,0.0003797
1780.0,0.0001965
1785.0,6.731e-05
1790.0,4.561e-05
1795.0,8.545e-06
1800.0,5.879e-06
1805.0,2.334e-06
1810.0,1.516e-06
1815.0,4.384e-07
1820.0,1.097e-07
1825.0,1.431e-07
1830.0,3.489e-10
1835.0,5.283e-10
1840.0,3.083e-12
1845.0,3.297e-10
1850.0,1.488e-10
1855.0,1.422e-11
1860.0,8.152e-10
1865.0,1.136e-09
1870.0,6.218e-15
1875.0,1.124e-14
1880.0,5.984e-09
1885.0,3.189e-09
1890.0,1.749e-08
1895.0,1.015e-08
1900.0,4.339e-11
1905.0,2.955e-11
1910.0,1.431e-09
1915.0,1.395e-09
1920.0,3.658e-08
1925.0,8.593e-08
1930.0,4.963e-08
1935.0,3.783e-07
1940.0,3.757e-07
1945.0,1.548e-06
1950.0,3.015e-06
1955.0,2.684e-06
1960.0,4.749e-06
1965.0,6.665e-05
1970.0,0.0001575
1975.0,0.0002032
1980.0,9.408e-05
1985.0,0.0001712
1990.0,0.0004683
1995.0,0.0004224
2000.0,0.0007162
2005.0,0.0003184
2010.0,0.001498
2015.0,0.0003596
2020.0,0.000672
2025.0,0.00117
2030.0,0.0007711
2035.0,0.001493
2040.0,0.001107
2045.0,0.00121
2050.0,0.001716
2055.0,0.001193
2060.0,0.001045
2065.0,0.00133
2070.0,0.001152
2075.0,0.001622
2080.0,0.001636
2085.0,0.001612
2090.0,0.001719
2095.0,0.001537
2100.0,0.001096
2105.0,0.001545
2110.0,0.001197
2115.0,0.001575
2120.0,0.001087
2125.0,0.001358
2130.0,0.001598
2135.0,0.001698
2140.0,0.001748
2145.0,0.001722
2150.0,0.001065
2155.0,0.00104
2160.0,0.00113
2165.0,0.0009485
2170.0,0.001231
2175.0,0.0009238
2180.0,0.001162
2185.0,0.000735
2190.0,0.00109
2195.0,0.0009983
2200.0,0.0002489
2205.0,0.0006492
2210.0,0.001333
2215.0,0.0009324
2220.0,0.001035
2225.0,0.000874
2230.0,0.0008917
2235.0,0.0007518
2240.0,0.0007243
2245.0,0.0004646
2250.0,0.0007076
2255.0,0.0003155
2260.0,0.0002805
2265.0,0.0004484
2270.0,0.000204
2275.0,0.000181
2280.0,0.0004259
2285.0,0.0001851
2290.0,0.0001993
2295.0,0.0001803
2300.0,9.044e-05
2305.0,0.0001092
2310.0,0.0004636
2315.0,0.0001159
2320.0,3.93e-05
2325.0,0.0002593
2330.0,0.000149
2335.0,0.0002039
2340.0,3.037e-05
2345.0,4.357e-05
2350.0,2.303e-05
2355.0,3.225e-05
2360.0,4.879e-05
2365.0,0.0001342
2370.0,2.414e-06
2375.0,2.767e-05
2380.0,6.505e-05
2385.0,8.352e-06
2390.0,1.148e-05
2395.0,1.624e-05
2400.0,2.032e-05
2405.0,2.629e-05
2410.0,2.329e-05
2415.0,3.037e-06
2420.0,2.425e-06
2425.0,3.647e-06
2430.0,1.023e-05
2435.0,8.584e-07
2440.0,1.159e-05
2445.0,1.282e-06
2450.0,7.417e-07
2455.0,4.169e-06
2460.0,2.165e-06
2465.0,1.326e-06
2470.0,8.576e-07
2475.0,8.329e-07
2480.0,3.913e-07
2485.0,2.529e-07
2490.0,1.455e-07
2495.0,1.258e-07
2500.0,3.122e-07
2505.0,6.347e-08
2510.0,9.34e-08
2515.0,1.984e-08
2520.0,1.111e-08
2525.0,1.267e-09
2530.0,8.823e-12
2535.0,1.951e-12
2540.0,4.629e-12
2545.0,3.59e-16
2550.0,1.456e-18
2555.0,6.986e-15
2560.0,2.097e-16
2565.0,4.6940000000000007e-20
2570.0,1.3979999999999999e-24
2575.0,8.842e-35
2580.0,9.219999999999999e-29
2585.0,1.927e-42
2590.0,1.202e-38
2595.0,2.34e-40
2600.0,1.926e-35
2605.0,2.129e-42
2610.0,7.327000000000001e-42
2615.0,0.0
2620.0,6.457e-36
2625.0,1.182e-35
2630.0,0.0
2635.0,6.1579999999999995e-22
2640.0,1.333e-22
2645.0,5.81e-25
2650.0,5.788000000000001e-26
2655.0,6.96e-35
2660.0,5.86e-32
2665.0,5.605e-45
2670.0,0.0
2675.0,2.803e-44
2680.0,1.1880000000000001e-30
2685.0,1.1350000000000002e-31
2690.0,4.247000000000001e-31
2695.0,1.6659999999999998e-33
2700.0,4.853e-29
2705.0,1.376e-26
2710.0,1.0960000000000001e-31
2715.0,1.384e-29
2720.0,0.0
2725.0,3.099e-27
2730.0,9.035000000000001e-25
2735.0,1.0300000000000001e-26
2740.0,1.861e-32
2745.0,2.4e-27
2750.0,1.3450000000000002e-26
2755.0,2.164e-28
2760.0,3.242e-23
2765.0,1.522e-29
2770.0,7.478e-27
2775.0,1.886e-23
2780.0,4.2980000000000004e-21
2785.0,1.614e-20
2790.0,3.679e-18
2795.0,8.095e-19
2800.0,2.596e-15
2805.0,4.832e-17
2810.0,1.937e-13
2815.0,5.779e-14
2820.0,7.061e-16
2825.0,1.436e-09
2830.0,1.347e-10
2835.0,1.855e-15
2840.0,4.003e-12
2845.0,1.374e-09
2850.0,2.378e-11
2855.0,9.499e-12
2860.0,5.218e-10
2865.0,3.641e-09
2870.0,1.025e-10
2875.0,8.862e-09
2880.0,5.585e-09
2885.0,9.201e-09
2890.0,3.912e-09
2895.0,6.667e-08
2900.0,1.858e-08
2905.0,2.151e-09
2910.0,6.8e-08
2915.0,2.886e-08
2920.0,7.162e-08
2925.0,2.553e-08
2930.0,1.545e-07
2935.0,1.704e-07
2940.0,3.815e-08
2945.0,3.276e-08
2950.0,1.322e-07
2955.0,5.887e-08
2960.0,1.169e-07
2965.0,1.982e-07
2970.0,7.749e-09
2975.0,1.964e-08
2980.0,3.057e-08
2985.0,1.817e-07
2990.0,3.25e-07
2995.0,1.046e-07
3000.0,2.007e-07
3005.0,6.69e-08
3010.0,1.785e-07
3015.0,1.347e-07
3020.0,1.205e-08
3025.0,1.84e-07
3030.0,1.46e-07
3035.0,5.503e-08
3040.0,4.301e-08
3045.0,9.24e-08
3050.0,2.094e-08
3055.0,5.123e-09
3060.0,1.438e-07
3065.0,6.087e-08
3070.0,3.42e-08
3075.0,1.342e-07
3080.0,7.785e-08
3085.0,3.438e-08
3090.0,4.675e-08
3095.0,1.15e-08
3100.0,9.344e-08
3105.0,1.751e-08
3110.0,1.466e-08
3115.0,4.398e-08
3120.0,2.167e-07
3125.0,3.307e-07
3130.0,1.265e-07
3135.0,2.676e-07
3140.0,6.727e-08
3145.0,6.577e-08
3150.0,1.397e-07
3155.0,1.257e-07
3160.0,2.227e-07
3165.0,6.345e-07
3170.0,8.877e-07
3175.0,1.973e-07
3180.0,3.516e-07
3185.0,1.56e-07
3190.0,8.486e-08
3195.0,4.537e-08
3200.0,6.403e-09
3205.0,4.183e-09
3210.0,1.743e-09
3215.0,7.084e-09
3220.0,2.487e-08
3225.0,2.86e-09
3230.0,4.75e-09
3235.0,1.332e-07
3240.0,6.052e-08
3245.0,1.149e-08
3250.0,4.238e-08
3255.0,1.821e-07
3260.0,1.813e-08
3265.0,3.925e-08
3270.0,1.848e-08
3275.0,1.116e-07
3280.0,4.738e-08
3285.0,2.357e-07
3290.0,1.552e-07
3295.0,1.906e-08
3300.0,2.822e-08
3305.0,6.48e-08
3310.0,6.154e-08
3315.0,8.92e-11
3320.0,5.62e-10
3325.0,5.168e-08
3330.0,8.508e-08
3335.0,1.635e-07
3340.0,4.521e-07
3345.0,5.437e-08
3350.0,1.87e-07
3355.0,5.527e-08
3360.0,8.697e-08
3365.0,2.681e-07
3370.0,5.765e-08
3375.0,8.696e-07
3380.0,7.594e-08
3385.0,8.615e-07
3390.0,2.638e-07
3395.0,9.189e-07
3400.0,1.178e-05
3405.0,6.328e-08
3410.0,1.284e-06
3415.0,1.133e-07
3420.0,3.009e-05
3425.0,5.384e-07
3430.0,1.599e-07
3435.0,2.345e-05
3440.0,1.352e-07
3445.0,1.019e-05
3450.0,2.97e-06
3455.0,4.581e-07
3460.0,3.748e-05
3465.0,5.27e-07
3470.0,3.467e-05
3475.0,4.626e-06
3480.0,5.139e-06
3485.0,2.844e-05
3490.0,2.761e-06
3495.0,2.905e-05
3500.0,2.641e-05
3505.0,2.386e-05
3510.0,2.634e-05
3515.0,2.477e-05
3520.0,4.167e-05
3525.0,4.098e-05
3530.0,2.057e-05
3535.0,2.733e-06
3540.0,2.026e-06
3545.0,2.058e-06
3550.0,1.818e-05
3555.0,4.171e-06
3560.0,2.856e-05
3565.0,1.425e-05
3570.0,3.805e-06
3575.0,1.945e-06
3580.0,1.43e-05
3585.0,3.754e-06
3590.0,1.008e-05
3595.0,2.68e-05
3600.0,3.752e-05
3605.0,1.584e-05
3610.0,1.164e-05
3615.0,2.873e-05
3620.0,9.326e-05
3625.0,2.15e-05
3630.0,3.324e-05
3635.0,4.003e-05
3640.0,0.000108
3645.0,2.836e-05
3650.0,3.358e-05
3655.0,7.134e-05
3660.0,8.745e-05
3665.0,2.178e-05
3670.0,1.025e-05
3675.0,3.574e-07
3680.0,6.809e-06
3685.0,1.674e-05
3690.0,1.428e-05
3695.0,5.085e-05
3700.0,0.0001124
3705.0,0.0001014
3710.0,2.631e-05
3715.0,4.192e-05
3720.0,7.969e-05
3725.0,9.335e-05
3730.0,3.944e-05
3735.0,2.013e-05
3740.0,3.748e-05
3745.0,8.684e-05
3750.0,5.27e-05
3755.0,3.816e-05
3760.0,2.36e-05
3765.0,2.597e-05
3770.0,4.034e-05
3775.0,4.276e-05
3780.0,6.743e-05
3785.0,3.958e-05
3790.0,1.744e-05
3795.0,5.159e-05
3800.0,9.16e-05
3805.0,6.683e-05
3810.0,3.019e-05
3815.0,2.434e-05
3820.0,8.97e-05
3825.0,8.963e-05
3830.0,9.317e-05
3835.0,1.878e-05
3840.0,5.311e-05
3845.0,3.568e-05
3850.0,3.626e-05
3855.0,2.832e-05
3860.0,8.755e-06
3865.0,8.757e-06
3870.0,2.143e-06
3875.0,6.167e-07
3880.0,3.482e-07
3885.0,5.796e-07
3890.0,7.446e-07
3895.0,2.873e-06
3900.0,1.117e-05
3905.0,9.099e-06
3910.0,1.56e-06
3915.0,1.17e-06
3920.0,1.26e-06
3925.0,1.146e-06
3930.0,1.743e-06
3935.0,3.562e-06
3940.0,4.46e-06
3945.0,6.413e-06
3950.0,9.346e-06
3955.0,1.15e-05
3960.0,1.37e-05
3965.0,1.577e-05
3970.0,1.38e-05
3975.0,9.608e-06
3980.0,8.269e-06
3985.0,9.588e-06
3990.0,8.352e-06
3995.0,6.296e-06
4000.0,4.743e-06
