interpolation:linear
wavelength,value
280.0,2.3339999999999998e-23
280.5,8.184999999999999e-22
281.0,4.4760000000000004e-21
281.5,1.514e-19
282.0,1.249e-18
282.5,4.852e-18
283.0,2.174e-17
283.5,4.056e-17
284.0,8.55e-16
284.5,2.365e-15
285.0,6.06e-16
285.5,3.477e-15
286.0,1.451e-14
286.5,6.969e-14
287.0,2.073e-13
287.5,8.345e-13
288.0,4.32e-11
288.5,4.428e-11
289.0,8.289e-11
289.5,2.065e-10
290.0,5.192e-10
290.5,9.94e-10
291.0,2.018e-09
291.5,5.517e-09
292.0,1.098e-08
292.5,1.429e-08
293.0,2.832e-08
293.5,6.335e-08
294.0,9.342e-08
294.5,1.86e-08
295.0,3.092e-08
295.5,5.139e-08
296.0,8.558e-08
296.5,1.044e-07
297.0,1.268e-07
297.5,2.913e-07
298.0,4.039e-07
298.5,3.69e-07
299.0,7.418e-07
299.5,1.051e-06
300.0,1.059e-06
300.5,1.405e-06
301.0,2.21e-06
301.5,3.11e-06
302.0,2.499e-06
302.5,2.238e-06
303.0,4.192e-06
303.5,5.396e-06
304.0,5.09e-06
304.5,7.776e-06
305.0,1.255e-05
305.5,1.52e-05
306.0,1.509e-05
306.5,1.967e-05
307.0,3.28e-05
307.5,4.975e-05
308.0,5.38e-05
308.5,6.84e-05
309.0,6.683e-05
309.5,6.817e-05
310.0,6.694e-05
310.5,0.0001078
311.0,0.000135
311.5,0.0001305
312.0,0.0001341
312.5,0.000169
313.0,0.0001896
313.5,0.0001784
314.0,0.0002493
314.5,0.000266
315.0,0.0003617
315.5,0.0002761
316.0,0.0002817
316.5,0.0004654
317.0,0.0005765
317.5,0.0005763
318.0,0.0004958
318.5,0.0007482
319.0,0.0009835
319.5,0.0006812
320.0,0.0008037
320.5,0.001235
321.0,0.001337
321.5,0.001308
322.0,0.00113
322.5,0.0009939
323.0,0.001134
323.5,0.002857
324.0,0.003474
324.5,0.003177
325.0,0.001463
325.5,0.00211
326.0,0.004939
326.5,0.005631
327.0,0.005351
327.5,0.004862
328.0,0.003622
328.5,0.004718
329.0,0.006742
329.5,0.008155
330.0,0.007815
330.5,0.005429
331.0,0.005296
331.5,0.005916
332.0,0.007551
332.5,0.008064
333.0,0.007695
333.5,0.006133
334.0,0.006149
334.5,0.008202
335.0,0.008359
335.5,0.01047
336.0,0.007241
336.5,0.007604
337.0,0.005877
337.5,0.007149
338.0,0.007844
338.5,0.009852
339.0,0.009834
339.5,0.00941
340.0,0.01019
340.5,0.009296
341.0,0.009768
341.5,0.009106
342.0,0.01093
342.5,0.01027
343.0,0.01119
343.5,0.01048
344.0,0.007179
344.5,0.00773
345.0,0.01042
345.5,0.01072
346.0,0.009154
346.5,0.0104
347.0,0.01108
347.5,0.008937
348.0,0.01029
348.5,0.01035
349.0,0.009624
349.5,0.009521
350.0,0.01179
350.5,0.01244
351.0,0.01106
351.5,0.01062
352.0,0.0115
352.5,0.009032
353.0,0.01142
353.5,0.01225
354.0,0.01274
354.5,0.01293
355.0,0.01286
355.5,0.01164
356.0,0.0122
356.5,0.01042
357.0,0.00861
357.5,0.01055
358.0,0.008371
358.5,0.007159
359.0,0.01001
359.5,0.01271
360.0,0.01349
360.5,0.01081
361.0,0.009866
361.5,0.01137
362.0,0.009845
362.5,0.01363
363.0,0.01225
363.5,0.01129
364.0,0.01381
364.5,0.0118
365.0,0.01202
365.5,0.0151
366.0,0.016
366.5,0.01505
367.0,0.01466
367.5,0.01522
368.0,0.01332
368.5,0.01344
369.0,0.01452
369.5,0.01549
370.0,0.01652
370.5,0.01282
371.0,0.01371
371.5,0.01716
372.0,0.01139
372.5,0.01366
373.0,0.0139
373.5,0.009047
374.0,0.01315
374.5,0.01089
375.0,0.01059
375.5,0.01582
376.0,0.01312
376.5,0.0136
377.0,0.0144
377.5,0.01686
378.0,0.01828
378.5,0.01728
379.0,0.01427
379.5,0.01304
380.0,0.01356
380.5,0.01642
381.0,0.01646
381.5,0.01305
382.0,0.0116
382.5,0.009889
383.0,0.009158
383.5,0.008824
384.0,0.009737
384.5,0.01433
385.0,0.01421
385.5,0.01324
386.0,0.01134
386.5,0.0149
387.0,0.01239
387.5,0.01392
388.0,0.01285
388.5,0.01271
389.0,0.01372
389.5,0.01662
390.0,0.01669
390.5,0.01536
391.0,0.01809
391.5,0.01846
392.0,0.01555
392.5,0.01393
393.0,0.007751
393.5,0.005635
394.0,0.01147
394.5,0.01459
395.0,0.0178
395.5,0.01809
396.0,0.01569
396.5,0.009176
397.0,0.006889
397.5,0.01401
398.0,0.01963
398.5,0.0203
399.0,0.02199
399.5,0.02192
400.0,0.02277
401.0,0.02249
402.0,0.02373
403.0,0.02255
404.0,0.02222
405.0,0.02222
406.0,0.02187
407.0,0.02151
408.0,0.02234
409.0,0.02391
410.0,0.0209
411.0,0.02264
412.0,0.02433
413.0,0.02375
414.0,0.02404
415.0,0.0241
416.0,0.02451
417.0,0.02391
418.0,0.02347
419.0,0.02379
420.0,0.02369
421.0,0.02478
422.0,0.02354
423.0,0.02296
424.0,0.02426
425.0,0.02421
426.0,0.02358
427.0,0.02315
428.0,0.02258
429.0,0.0214
430.0,0.01873
431.0,0.01855
432.0,0.02393
433.0,0.02404
434.0,0.02233
435.0,0.02333
436.0,0.02629
437.0,0.02593
438.0,0.02357
439.0,0.02432
440.0,0.02505
441.0,0.02589
442.0,0.02772
443.0,0.02699
444.0,0.02761
445.0,0.02706
446.0,0.02587
447.0,0.02799
448.0,0.02839
449.0,0.02844
450.0,0.02918
451.0,0.03024
452.0,0.02915
453.0,0.02743
454.0,0.02864
455.0,0.02876
456.0,0.02938
457.0,0.02977
458.0,0.02863
459.0,0.02835
460.0,0.02831
461.0,0.02888
462.0,0.0291
463.0,0.02895
464.0,0.02857
465.0,0.02829
466.0,0.0286
467.0,0.02805
468.0,0.0283
469.0,0.02836
470.0,0.0274
471.0,0.02736
472.0,0.02884
473.0,0.02847
474.0,0.02847
475.0,0.02862
476.0,0.02762
477.0,0.02753
478.0,0.02812
479.0,0.02775
480.0,0.02762
481.0,0.02798
482.0,0.02805
483.0,0.02773
484.0,0.02723
485.0,0.02605
486.0,0.02286
487.0,0.024
488.0,0.0263
489.0,0.02632
490.0,0.02761
491.0,0.02705
492.0,0.02551
493.0,0.02633
494.0,0.02658
495.0,0.02678
496.0,0.02687
497.0,0.02716
498.0,0.02571
499.0,0.02584
500.0,0.02488
501.0,0.02422
502.0,0.02365
503.0,0.0244
504.0,0.02362
505.0,0.0244
506.0,0.02517
507.0,0.02398
508.0,0.02329
509.0,0.02402
510.0,0.02395
511.0,0.02461
512.0,0.02486
513.0,0.02347
514.0,0.02324
515.0,0.02293
516.0,0.0228
517.0,0.02021
518.0,0.0212
519.0,0.02218
520.0,0.02291
521.0,0.02303
522.0,0.02293
523.0,0.02243
524.0,0.02306
525.0,0.02314
526.0,0.02195
527.0,0.02051
528.0,0.02152
529.0,0.02253
530.0,0.02208
531.0,0.02227
532.0,0.02142
533.0,0.02074
534.0,0.02134
535.0,0.02181
536.0,0.02202
537.0,0.02116
538.0,0.02151
539.0,0.02128
540.0,0.02032
541.0,0.02033
542.0,0.02088
543.0,0.02059
544.0,0.02084
545.0,0.02071
546.0,0.02072
547.0,0.02067
548.0,0.02041
549.0,0.02043
550.0,0.02063
551.0,0.02034
552.0,0.02043
553.0,0.02001
554.0,0.02043
555.0,0.02039
556.0,0.02004
557.0,0.01932
558.0,0.01904
559.0,0.01855
560.0,0.01865
561.0,0.01876
562.0,0.01848
563.0,0.01885
564.0,0.01823
565.0,0.01797
566.0,0.01762
567.0,0.01784
568.0,0.01752
569.0,0.01701
570.0,0.01691
571.0,0.01672
572.0,0.01701
573.0,0.01713
574.0,0.01701
575.0,0.01665
576.0,0.01649
577.0,0.01668
578.0,0.01649
579.0,0.01665
580.0,0.0171
581.0,0.01731
582.0,0.01774
583.0,0.01786
584.0,0.01807
585.0,0.01766
586.0,0.01731
587.0,0.01764
588.0,0.01717
589.0,0.01476
590.0,0.01537
591.0,0.0164
592.0,0.01603
593.0,0.01642
594.0,0.01609
595.0,0.01565
596.0,0.01645
597.0,0.01602
598.0,0.01591
599.0,0.01601
600.0,0.01595
601.0,0.0158
602.0,0.0157
603.0,0.016
604.0,0.01631
605.0,0.01628
606.0,0.01627
607.0,0.01651
608.0,0.01641
609.0,0.01653
610.0,0.0165
611.0,0.01668
612.0,0.01672
613.0,0.0166
614.0,0.01645
615.0,0.01688
616.0,0.01639
617.0,0.01641
618.0,0.0171
619.0,0.01697
620.0,0.0171
621.0,0.01714
622.0,0.01695
623.0,0.0167
624.0,0.0164
625.0,0.01635
626.0,0.01657
627.0,0.01666
628.0,0.01449
629.0,0.01576
630.0,0.0154
631.0,0.01614
632.0,0.01615
633.0,0.0168
634.0,0.01684
635.0,0.01726
636.0,0.01713
637.0,0.01756
638.0,0.01787
639.0,0.01777
640.0,0.01774
641.0,0.01783
642.0,0.01788
643.0,0.01821
644.0,0.01825
645.0,0.01818
646.0,0.01778
647.0,0.01704
648.0,0.01698
649.0,0.01666
650.0,0.01729
651.0,0.01816
652.0,0.01687
653.0,0.01811
654.0,0.01818
655.0,0.01686
656.0,0.01513
657.0,0.01583
658.0,0.01782
659.0,0.01833
660.0,0.01839
661.0,0.01867
662.0,0.01888
663.0,0.01859
664.0,0.01884
665.0,0.01888
666.0,0.01897
667.0,0.01903
668.0,0.01916
669.0,0.0195
670.0,0.01948
671.0,0.01954
672.0,0.01943
673.0,0.01979
674.0,0.01976
675.0,0.01964
676.0,0.01982
677.0,0.01967
678.0,0.01978
679.0,0.0195
680.0,0.01968
681.0,0.01954
682.0,0.01952
683.0,0.01945
684.0,0.01931
685.0,0.01958
686.0,0.01932
687.0,0.009601
688.0,0.01126
689.0,0.0113
690.0,0.01196
691.0,0.01294
692.0,0.01409
693.0,0.01414
694.0,0.01442
695.0,0.01595
696.0,0.01606
697.0,0.0191
698.0,0.01804
699.0,0.01652
700.0,0.01632
701.0,0.01565
702.0,0.01594
703.0,0.01646
704.0,0.01728
705.0,0.01754
706.0,0.01773
707.0,0.01767
708.0,0.01852
709.0,0.01882
710.0,0.01808
711.0,0.01834
712.0,0.01876
713.0,0.01793
714.0,0.01824
715.0,0.0172
716.0,0.01671
717.0,0.01194
718.0,0.01141
719.0,0.01095
720.0,0.01078
721.0,0.01292
722.0,0.01485
723.0,0.014
724.0,0.01254
725.0,0.01184
726.0,0.01152
727.0,0.01352
728.0,0.01099
729.0,0.01214
730.0,0.01218
731.0,0.01174
732.0,0.01323
733.0,0.01482
734.0,0.01575
735.0,0.01528
736.0,0.01466
737.0,0.01507
738.0,0.01667
739.0,0.01639
740.0,0.01735
741.0,0.01735
742.0,0.01781
743.0,0.01818
744.0,0.01814
745.0,0.01838
746.0,0.01845
747.0,0.01856
748.0,0.01853
749.0,0.01834
750.0,0.01834
751.0,0.01815
752.0,0.01825
753.0,0.01838
754.0,0.01839
755.0,0.01824
756.0,0.01828
757.0,0.01827
758.0,0.01796
759.0,0.01602
760.0,0.00188
761.0,0.001004
762.0,0.005516
763.0,0.002809
764.0,0.004158
765.0,0.005467
766.0,0.006649
767.0,0.008503
768.0,0.0114
769.0,0.01273
770.0,0.01519
771.0,0.01659
772.0,0.01708
773.0,0.0173
774.0,0.01731
775.0,0.01724
776.0,0.01748
777.0,0.01724
778.0,0.0171
779.0,0.01711
780.0,0.01702
781.0,0.01704
782.0,0.01716
783.0,0.01689
784.0,0.01701
785.0,0.01686
786.0,0.01684
787.0,0.01575
788.0,0.01568
789.0,0.01499
790.0,0.01358
791.0,0.01447
792.0,0.01458
793.0,0.01424
794.0,0.01594
795.0,0.01558
796.0,0.01373
797.0,0.01482
798.0,0.01602
799.0,0.01524
800.0,0.01405
801.0,0.01351
802.0,0.01423
803.0,0.01343
804.0,0.01399
805.0,0.01438
806.0,0.0157
807.0,0.01475
808.0,0.015
809.0,0.01387
810.0,0.01364
811.0,0.0119
812.0,0.01135
813.0,0.01077
814.0,0.008476
815.0,0.008245
816.0,0.009225
817.0,0.009281
818.0,0.009275
819.0,0.00939
820.0,0.0107
821.0,0.01143
822.0,0.01041
823.0,0.005489
824.0,0.00993
825.0,0.01292
826.0,0.01005
827.0,0.01163
828.0,0.008396
829.0,0.01126
830.0,0.01086
831.0,0.01069
832.0,0.01045
833.0,0.01041
834.0,0.009755
835.0,0.01236
836.0,0.01105
837.0,0.01223
838.0,0.01115
839.0,0.01311
840.0,0.01375
841.0,0.01311
842.0,0.01338
843.0,0.01402
844.0,0.01332
845.0,0.01433
846.0,0.01456
847.0,0.01446
848.0,0.0141
849.0,0.01357
850.0,0.01301
851.0,0.01321
852.0,0.01349
853.0,0.01326
854.0,0.0114
855.0,0.01255
856.0,0.01375
857.0,0.0142
858.0,0.01406
859.0,0.01431
860.0,0.0144
861.0,0.01432
862.0,0.01456
863.0,0.01488
864.0,0.01418
865.0,0.01408
866.0,0.01265
867.0,0.01321
868.0,0.01437
869.0,0.0141
870.0,0.0145
871.0,0.01427
872.0,0.01425
873.0,0.01422
874.0,0.01405
875.0,0.01371
876.0,0.01385
877.0,0.01396
878.0,0.0141
879.0,0.01388
880.0,0.01351
881.0,0.01321
882.0,0.01329
883.0,0.01348
884.0,0.01334
885.0,0.01323
886.0,0.0119
887.0,0.0127
888.0,0.01252
889.0,0.01337
890.0,0.01227
891.0,0.01314
892.0,0.0111
893.0,0.01042
894.0,0.008575
895.0,0.007046
896.0,0.007133
897.0,0.006579
898.0,0.006922
899.0,0.004342
900.0,0.006098
901.0,0.004543
902.0,0.004598
903.0,0.005624
904.0,0.008338
905.0,0.007428
906.0,0.007127
907.0,0.005306
908.0,0.005932
909.0,0.005537
910.0,0.003984
911.0,0.004735
912.0,0.007484
913.0,0.004135
914.0,0.005872
915.0,0.003999
916.0,0.004649
917.0,0.004803
918.0,0.004229
919.0,0.005266
920.0,0.00652
921.0,0.006182
922.0,0.004953
923.0,0.006176
924.0,0.004681
925.0,0.004575
926.0,0.004483
927.0,0.005195
928.0,0.002977
929.0,0.002589
930.0,0.001979
931.0,0.001864
932.0,0.001332
933.0,0.001076
934.0,0.0005838
935.0,0.001094
936.0,0.0006777
937.0,0.0006837
938.0,0.0008381
939.0,0.001751
940.0,0.002114
941.0,0.001571
942.0,0.001814
943.0,0.001183
944.0,0.001244
945.0,0.001594
946.0,0.0008032
947.0,0.001589
948.0,0.001165
949.0,0.002124
950.0,0.0005814
951.0,0.002086
952.0,0.001142
953.0,0.001441
954.0,0.001759
955.0,0.001632
956.0,0.001416
957.0,0.001133
958.0,0.002067
959.0,0.001599
960.0,0.001843
961.0,0.002121
962.0,0.00197
963.0,0.002516
964.0,0.002233
965.0,0.002345
966.0,0.002675
967.0,0.002987
968.0,0.006424
969.0,0.004194
970.0,0.005504
971.0,0.005386
972.0,0.005914
973.0,0.003669
974.0,0.003357
975.0,0.004435
976.0,0.004342
977.0,0.005811
978.0,0.004122
979.0,0.005021
980.0,0.004956
981.0,0.005753
982.0,0.004941
983.0,0.004694
984.0,0.007167
985.0,0.00475
986.0,0.009253
987.0,0.006884
988.0,0.007393
989.0,0.009612
990.0,0.006731
991.0,0.009471
992.0,0.009802
993.0,0.007856
994.0,0.009962
995.0,0.01022
996.0,0.00995
997.0,0.009969
998.0,0.00983
999.0,0.009884
1000.0,0.009776
1001.0,0.01002
1002.0,0.008332
1003.0,0.009871
1004.0,0.009013
1005.0,0.009103
1006.0,0.009441
1007.0,0.009644
1008.0,0.009338
1009.0,0.008927
1010.0,0.008882
1011.0,0.009445
1012.0,0.009258
1013.0,0.00964
1014.0,0.009581
1015.0,0.009543
1016.0,0.009386
1017.0,0.00929
1018.0,0.009473
1019.0,0.008562
1020.0,0.009389
1021.0,0.009442
1022.0,0.009192
1023.0,0.009217
1024.0,0.008408
1025.0,0.009394
1026.0,0.00907
1027.0,0.009333
1028.0,0.009104
1029.0,0.008888
1030.0,0.009116
1031.0,0.009159
1032.0,0.009024
1033.0,0.008967
1034.0,0.008923
1035.0,0.008963
1036.0,0.008866
1037.0,0.008788
1038.0,0.008781
1039.0,0.008706
1040.0,0.008651
1041.0,0.008597
1042.0,0.00853
1043.0,0.008453
1044.0,0.008422
1045.0,0.008253
1046.0,0.008103
1047.0,0.008108
1048.0,0.008079
1049.0,0.00798
1050.0,0.007863
1051.0,0.007761
1052.0,0.007644
1053.0,0.007478
1054.0,0.007384
1055.0,0.007261
1056.0,0.007094
1057.0,0.006975
1058.0,0.0067
1059.0,0.006576
1060.0,0.006516
1061.0,0.006434
1062.0,0.006434
1063.0,0.006203
1064.0,0.006312
1065.0,0.006009
1066.0,0.006069
1067.0,0.006138
1068.0,0.005852
1069.0,0.005797
1070.0,0.00608
1071.0,0.006434
1072.0,0.006088
1073.0,0.006133
1074.0,0.006692
1075.0,0.005179
1076.0,0.006787
1077.0,0.005911
1078.0,0.005319
1079.0,0.006942
1080.0,0.005761
1081.0,0.004904
1082.0,0.006152
1083.0,0.006398
1084.0,0.004985
1085.0,0.005958
1086.0,0.004697
1087.0,0.004837
1088.0,0.006269
1089.0,0.004802
1090.0,0.00464
1091.0,0.005679
1092.0,0.006004
1093.0,0.00338
1094.0,0.00504
1095.0,0.00312
1096.0,0.002755
1097.0,0.006076
1098.0,0.002717
1099.0,0.002616
1100.0,0.002153
1101.0,0.002334
1102.0,0.002027
1103.0,0.001709
1104.0,0.001974
1105.0,0.002202
1106.0,0.001129
1107.0,0.002051
1108.0,0.001226
1109.0,0.001352
1110.0,0.001565
1111.0,0.0008668
1112.0,0.001506
1113.0,0.0006719
1114.0,0.000746
1115.0,0.0006086
1116.0,0.0004705
1117.0,0.0001693
1118.0,0.0005097
1119.0,0.0002495
1120.0,0.0003129
1121.0,0.0004154
1122.0,0.0001721
1123.0,0.00028
1124.0,0.0002355
1125.0,0.0003068
1126.0,0.0001043
1127.0,0.000344
1128.0,0.0002028
1129.0,0.0002148
1130.0,0.00014
1131.0,0.0006495
1132.0,0.0005068
1133.0,0.0003171
1134.0,7.903e-05
1135.0,2.962e-05
1136.0,0.0002608
1137.0,0.0006245
1138.0,0.0004379
1139.0,0.0006582
1140.0,0.000545
1141.0,0.0004121
1142.0,0.0004738
1143.0,0.0006729
1144.0,0.0002316
1145.0,0.000294
1146.0,0.0003161
1147.0,0.0001087
1148.0,0.000573
1149.0,0.0004541
1150.0,0.0002445
1151.0,0.0004164
1152.0,0.0005131
1153.0,0.0005012
1154.0,0.0002768
1155.0,0.0006553
1156.0,0.0005917
1157.0,0.0006887
1158.0,0.0006639
1159.0,0.0007379
1160.0,0.0006484
1161.0,0.001071
1162.0,0.001435
1163.0,0.00172
1164.0,0.00179
1165.0,0.001037
1166.0,0.001739
1167.0,0.00171
1168.0,0.001513
1169.0,0.001714
1170.0,0.002289
1171.0,0.00198
1172.0,0.003371
1173.0,0.002022
1174.0,0.001097
1175.0,0.002574
1176.0,0.0045
1177.0,0.002895
1178.0,0.001664
1179.0,0.004159
1180.0,0.003851
1181.0,0.002285
1182.0,0.001034
1183.0,0.002392
1184.0,0.003394
1185.0,0.002465
1186.0,0.002953
1187.0,0.00219
1188.0,0.001146
1189.0,0.002426
1190.0,0.003323
1191.0,0.00212
1192.0,0.003438
1193.0,0.00413
1194.0,0.003272
1195.0,0.00226
1196.0,0.001875
1197.0,0.003179
1198.0,0.003132
1199.0,0.001512
1200.0,0.002623
1201.0,0.002044
1202.0,0.002906
1203.0,0.002006
1204.0,0.003581
1205.0,0.003936
1206.0,0.004356
1207.0,0.002487
1208.0,0.00278
1209.0,0.003109
1210.0,0.004115
1211.0,0.003354
1212.0,0.001907
1213.0,0.00353
1214.0,0.002232
1215.0,0.001987
1216.0,0.003978
1217.0,0.003571
1218.0,0.003878
1219.0,0.003649
1220.0,0.003905
1221.0,0.00424
1222.0,0.003966
1223.0,0.00377
1224.0,0.003345
1225.0,0.003769
1226.0,0.004425
1227.0,0.002926
1228.0,0.005053
1229.0,0.004304
1230.0,0.004044
1231.0,0.005407
1232.0,0.005391
1233.0,0.003359
1234.0,0.00577
1235.0,0.005354
1236.0,0.005697
1237.0,0.004807
1238.0,0.00568
1239.0,0.005636
1240.0,0.005736
1241.0,0.005373
1242.0,0.005597
1243.0,0.005615
1244.0,0.005427
1245.0,0.005589
1246.0,0.005589
1247.0,0.005356
1248.0,0.00518
1249.0,0.005354
1250.0,0.005125
1251.0,0.004704
1252.0,0.005195
1253.0,0.004324
1254.0,0.003907
1255.0,0.00502
1256.0,0.003529
1257.0,0.00327
1258.0,0.004249
1259.0,0.00255
1260.0,0.002728
1261.0,0.001522
1262.0,0.001162
1263.0,0.001167
1264.0,0.0007345
1265.0,0.001147
1266.0,0.0008663
1267.0,0.001038
1268.0,0.0007703
1269.0,0.00035
1270.0,0.0009521
1271.0,0.001614
1272.0,0.00166
1273.0,0.001551
1274.0,0.001722
1275.0,0.001864
1276.0,0.002159
1277.0,0.002514
1278.0,0.003114
1279.0,0.003125
1280.0,0.003352
1281.0,0.003636
1282.0,0.003903
1283.0,0.004064
1284.0,0.004374
1285.0,0.004321
1286.0,0.004652
1287.0,0.004585
1288.0,0.004413
1289.0,0.002792
1290.0,0.004492
1291.0,0.004801
1292.0,0.002317
1293.0,0.004243
1294.0,0.003904
1295.0,0.002789
1296.0,0.002156
1297.0,0.001842
1298.0,0.002703
1299.0,0.00391
1300.0,0.001504
1301.0,0.001402
1302.0,0.002649
1303.0,0.002557
1304.0,0.0007943
1305.0,0.002308
1306.0,0.001801
1307.0,0.001193
1308.0,0.001742
1309.0,0.001642
1310.0,0.001383
1311.0,0.002171
1312.0,0.001364
1313.0,0.001125
1314.0,0.0005869
1315.0,0.000577
1316.0,0.001669
1317.0,0.002328
1318.0,0.002222
1319.0,0.0009021
1320.0,0.0005892
1321.0,0.0009907
1322.0,0.0005918
1323.0,0.000351
1324.0,0.0008389
1325.0,0.0008762
1326.0,0.0007051
1327.0,0.0005668
1328.0,0.0003313
1329.0,0.0002243
1330.0,0.0002937
1331.0,0.0001755
1332.0,0.0001781
1333.0,0.0002484
1334.0,0.0002222
1335.0,0.0002947
1336.0,0.0002294
1337.0,0.0002042
1338.0,0.0002162
1339.0,0.0002157
1340.0,0.0002091
1341.0,0.0002014
1342.0,0.0002112
1343.0,0.000142
1344.0,8.479e-05
1345.0,0.000122
1346.0,6.016e-05
1347.0,6.095e-05
1348.0,3.93e-06
1349.0,1.41e-05
1350.0,1.462e-05
1351.0,3.533e-06
1352.0,9.506e-07
1353.0,4.838e-08
1354.0,1.663e-07
1355.0,1.339e-09
1356.0,2.344e-08
1357.0,3.561e-08
1358.0,1.573e-09
1359.0,1.981e-10
1360.0,7.161e-10
1361.0,8.01e-13
1362.0,2.191e-15
1363.0,9.631e-10
1364.0,3.976e-10
1365.0,7.653e-16
1366.0,4.175e-09
1367.0,1.704e-09
1368.0,5.911e-18
1369.0,1.466e-10
1370.0,7.219e-11
1371.0,4.093e-12
1372.0,9.247e-10
1373.0,1.863e-08
1374.0,8.641e-08
1375.0,1.567e-07
1376.0,1.406e-07
1377.0,6.422e-08
1378.0,6.279e-07
1379.0,2.684e-08
1380.0,3.857e-08
1381.0,1.005e-09
1382.0,8.111e-10
1383.0,1.213e-11
1384.0,1.59e-10
1385.0,7.604e-10
1386.0,7.153e-10
1387.0,8.652e-08
1388.0,1.702e-09
1389.0,2.922e-07
1390.0,2.508e-07
1391.0,1.668e-07
1392.0,1.081e-08
1393.0,5.728e-08
1394.0,2.953e-08
1395.0,2.164e-10
1396.0,1.046e-12
1397.0,2.256e-08
1398.0,6.671e-07
1399.0,4.22e-07
1400.0,4.473e-13
1401.0,1.856e-12
1402.0,1.169e-06
1403.0,1.465e-06
1404.0,4.45e-07
1405.0,1.025e-10
1406.0,1.15e-06
1407.0,1.014e-07
1408.0,9.361e-07
1409.0,3.121e-07
1410.0,2.499e-07
1411.0,1.26e-06
1412.0,1.7e-06
1413.0,1.77e-05
1414.0,1.951e-07
1415.0,9.319e-08
1416.0,2.925e-05
1417.0,8.638e-06
1418.0,9.782e-06
1419.0,1.506e-06
1420.0,5.945e-06
1421.0,6.414e-06
1422.0,3.761e-05
1423.0,7.215e-06
1424.0,1.354e-05
1425.0,1.978e-05
1426.0,2.264e-05
1427.0,4.212e-05
1428.0,2.948e-06
1429.0,3.102e-05
1430.0,5.353e-05
1431.0,5.885e-05
1432.0,2.291e-06
1433.0,3.693e-05
1434.0,1.858e-05
1435.0,1.8e-05
1436.0,3.546e-05
1437.0,2.711e-05
1438.0,1.119e-05
1439.0,4.82e-05
1440.0,3.599e-05
1441.0,2.691e-05
1442.0,2.982e-05
1443.0,3.804e-05
1444.0,5.296e-05
1445.0,4.069e-05
1446.0,1.805e-05
1447.0,2.845e-05
1448.0,0.0001008
1449.0,8.661e-05
1450.0,2.097e-05
1451.0,8.256e-06
1452.0,5.098e-05
1453.0,6.719e-05
1454.0,0.0001182
1455.0,5.441e-05
1456.0,7.254e-05
1457.0,9.886e-05
1458.0,0.0001183
1459.0,0.0001391
1460.0,7.129e-05
1461.0,7.331e-05
1462.0,0.0001089
1463.0,3.415e-05
1464.0,0.00013
1465.0,7.779e-05
1466.0,5.15e-05
1467.0,2.635e-05
1468.0,6.096e-05
1469.0,7.562e-05
1470.0,3.633e-05
1471.0,1.289e-05
1472.0,3.453e-05
1473.0,5.37e-05
1474.0,7.979e-05
1475.0,0.0001532
1476.0,5.342e-05
1477.0,5.335e-05
1478.0,4.983e-05
1479.0,9.716e-05
1480.0,4.569e-05
1481.0,9.195e-05
1482.0,4.468e-05
1483.0,0.0001197
1484.0,0.0001135
1485.0,9.894e-05
1486.0,9.666e-05
1487.0,4.311e-05
1488.0,7.764e-05
1489.0,0.0001549
1490.0,0.0001629
1491.0,0.0001961
1492.0,0.0001348
1493.0,0.0001618
1494.0,0.0002474
1495.0,0.0001918
1496.0,0.0001627
1497.0,0.0005068
1498.0,0.0003666
1499.0,0.0002925
1500.0,0.0009366
1501.0,0.0007849
1502.0,0.000916
1503.0,0.0003922
1504.0,0.0001279
1505.0,0.0002975
1506.0,0.001171
1507.0,0.001044
1508.0,0.001283
1509.0,0.0005389
1510.0,0.001428
1511.0,0.0009054
1512.0,0.001526
1513.0,0.0005985
1514.0,0.0005587
1515.0,0.00173
1516.0,0.001558
1517.0,0.0009319
1518.0,0.001295
1519.0,0.0008297
1520.0,0.00124
1521.0,0.002923
1522.0,0.001693
1523.0,0.003003
1524.0,0.002083
1525.0,0.001334
1526.0,0.001647
1527.0,0.001806
1528.0,0.002642
1529.0,0.002157
1530.0,0.001806
1531.0,0.001994
1532.0,0.00311
1533.0,0.003343
1534.0,0.003581
1535.0,0.003087
1536.0,0.003147
1537.0,0.003576
1538.0,0.003376
1539.0,0.003316
1540.0,0.003361
1541.0,0.003279
1542.0,0.003164
1543.0,0.003427
1544.0,0.003308
1545.0,0.003505
1546.0,0.003083
1547.0,0.003295
1548.0,0.003314
1549.0,0.003528
1550.0,0.003413
1551.0,0.003265
1552.0,0.003439
1553.0,0.003419
1554.0,0.003266
1555.0,0.003415
1556.0,0.003319
1557.0,0.003409
1558.0,0.003421
1559.0,0.003389
1560.0,0.003317
1561.0,0.003365
1562.0,0.003279
1563.0,0.003183
1564.0,0.003151
1565.0,0.003428
1566.0,0.003217
1567.0,0.003254
1568.0,0.003175
1569.0,0.003366
1570.0,0.003336
1571.0,0.003324
1572.0,0.003318
1573.0,0.0032
1574.0,0.002991
1575.0,0.002923
1576.0,0.002608
1577.0,0.002514
1578.0,0.00252
1579.0,0.002331
1580.0,0.002437
1581.0,0.002413
1582.0,0.002425
1583.0,0.002362
1584.0,0.002826
1585.0,0.002948
1586.0,0.002917
1587.0,0.002787
1588.0,0.003081
1589.0,0.003029
1590.0,0.002956
1591.0,0.003118
1592.0,0.003044
1593.0,0.003208
1594.0,0.003165
1595.0,0.003163
1596.0,0.002994
1597.0,0.002852
1598.0,0.003185
1599.0,0.003204
1600.0,0.003268
1601.0,0.003083
1602.0,0.002985
1603.0,0.003247
1604.0,0.003194
1605.0,0.003238
1606.0,0.00318
1607.0,0.003224
1608.0,0.002937
1609.0,0.003086
1610.0,0.002984
1611.0,0.003054
1612.0,0.003161
1613.0,0.003
1614.0,0.003113
1615.0,0.003051
1616.0,0.003018
1617.0,0.002863
1618.0,0.003118
1619.0,0.002836
1620.0,0.003025
1621.0,0.002983
1622.0,0.003008
1623.0,0.003083
1624.0,0.00292
1625.0,0.002857
1626.0,0.002874
1627.0,0.002969
1628.0,0.002836
1629.0,0.00293
1630.0,0.002844
1631.0,0.002569
1632.0,0.002762
1633.0,0.002098
1634.0,0.002777
1635.0,0.002071
1636.0,0.002476
1637.0,0.00264
1638.0,0.001541
1639.0,0.002575
1640.0,0.001454
1641.0,0.002376
1642.0,0.002687
1643.0,0.001123
1644.0,0.002847
1645.0,0.00173
1646.0,0.001085
1647.0,0.002806
1648.0,0.0011
1649.0,0.002326
1650.0,0.002457
1651.0,0.0008746
1652.0,0.002172
1653.0,0.002666
1654.0,0.001189
1655.0,0.002458
1656.0,0.001832
1657.0,0.002106
1658.0,0.002697
1659.0,0.002468
1660.0,0.002445
1661.0,0.00261
1662.0,0.001975
1663.0,0.002628
1664.0,0.002574
1665.0,0.001132
1666.0,0.0001456
1667.0,0.001168
1668.0,0.002214
1669.0,0.002334
1670.0,0.002611
1671.0,0.002248
1672.0,0.002495
1673.0,0.00258
1674.0,0.001982
1675.0,0.002135
1676.0,0.002477
1677.0,0.002039
1678.0,0.001574
1679.0,0.002537
1680.0,0.002082
1681.0,0.001579
1682.0,0.002488
1683.0,0.002577
1684.0,0.0008301
1685.0,0.002517
1686.0,0.002517
1687.0,0.001593
1688.0,0.002273
1689.0,0.002361
1690.0,0.002119
1691.0,0.0009071
1692.0,0.001871
1693.0,0.002513
1694.0,0.001667
1695.0,0.00225
1696.0,0.002457
1697.0,0.0005517
1698.0,0.002103
1699.0,0.002193
1700.0,0.001762
1702.0,0.002091
1705.0,0.001606
1710.0,0.001391
1715.0,0.001705
1720.0,0.001784
1725.0,0.0008713
1730.0,0.001605
1735.0,0.001111
1740.0,0.001317
1745.0,0.001689
1750.0,0.0006589
1755.0,0.001066
1760.0,0.0005477
1765.0,0.0005769
1770.0,0.0003568
1775.0,0.0003499
1780.0,0.0002025
1785.0,8.945e-05
1790.0,4.622e-05
1795.0,1.64e-05
1800.0,1.128e-05
1805.0,4.48e-06
1810.0,2.909e-06
1815.0,8.416e-07
1820.0,2.105e-07
1825.0,2.748e-07
1830.0,6.698e-10
1835.0,1.014e-09
1840.0,5.919e-12
1845.0,6.329e-10
1850.0,2.857e-10
1855.0,2.731e-11
1860.0,1.565e-09
1865.0,2.181e-09
1870.0,1.194e-14
1875.0,2.157e-14
1880.0,1.149e-08
1885.0,6.123e-09
1890.0,3.358e-08
1895.0,1.949e-08
1900.0,8.33e-11
1905.0,5.675e-11
1910.0,2.748e-09
1915.0,2.678e-09
1920.0,7.023e-08
1925.0,1.65e-07
1930.0,9.53e-08
1935.0,7.265e-07
1940.0,7.215e-07
1945.0,2.972e-06
1950.0,5.779e-06
1955.0,5.153e-06
1960.0,9.064e-06
1965.0,0.0001173
1970.0,0.0001554
1975.0,0.0001775
1980.0,5.019e-05
1985.0,8.39e-05
1990.0,0.0003839
1995.0,0.0002608
2000.0,0.0004504
2005.0,0.0002328
2010.0,0.0008562
2015.0,0.0001666
2020.0,0.0003346
2025.0,0.0006425
2030.0,0.0003898
2035.0,0.0008315
2040.0,0.0005836
2045.0,0.0006584
2050.0,0.001021
2055.0,0.0006472
2060.0,0.0005503
2065.0,0.0008434
2070.0,0.0007032
2075.0,0.0009598
2080.0,0.001012
2085.0,0.001006
2090.0,0.00103
2095.0,0.0009186
2100.0,0.0006337
2105.0,0.0009301
2110.0,0.0006608
2115.0,0.0009388
2120.0,0.0006243
2125.0,0.0008134
2130.0,0.0009783
2135.0,0.001037
2140.0,0.001059
2145.0,0.001048
2150.0,0.0005927
2155.0,0.0005673
2160.0,0.000641
2165.0,0.0005346
2170.0,0.0007192
2175.0,0.0005089
2180.0,0.000672
2185.0,0.0004254
2190.0,0.000614
2195.0,0.0005566
2200.0,0.0001196
2205.0,0.0003465
2210.0,0.0007937
2215.0,0.0005058
2220.0,0.0006006
2225.0,0.0004903
2230.0,0.0004998
2235.0,0.0004119
2240.0,0.0003947
2245.0,0.0002381
2250.0,0.0003849
2255.0,0.000154
2260.0,0.000136
2265.0,0.0002291
2270.0,9.548e-05
2275.0,8.394e-05
2280.0,0.0002164
2285.0,8.594e-05
2290.0,9.293e-05
2295.0,8.34e-05
2300.0,4.142e-05
2305.0,5.001e-05
2310.0,0.000237
2315.0,5.223e-05
2320.0,2.023e-05
2325.0,0.0001279
2330.0,6.837e-05
2335.0,9.446e-05
2340.0,1.648e-05
2345.0,2.023e-05
2350.0,1.434e-05
2355.0,1.654e-05
2360.0,2.049e-05
2365.0,7.048e-05
2370.0,3.842e-06
2375.0,1.482e-05
2380.0,4.459e-05
2385.0,6.219e-06
2390.0,6.959e-06
2395.0,8.628e-06
2400.0,9.427e-06
2405.0,1.716e-05
2410.0,1.366e-05
2415.0,3.68e-06
2420.0,3.18e-06
2425.0,4.062e-06
2430.0,6.492e-06
2435.0,1.59e-06
2440.0,6.485e-06
2445.0,2.242e-06
2450.0,1.4e-06
2455.0,4.032e-06
2460.0,3.593e-06
2465.0,2.497e-06
2470.0,1.648e-06
2475.0,1.597e-06
2480.0,7.495e-07
2485.0,4.861e-07
2490.0,2.795e-07
2495.0,2.418e-07
2500.0,6e-07
2505.0,1.22e-07
2510.0,1.795e-07
2515.0,6.466e-08
2520.0,2.136e-08
2525.0,2.436e-09
2530.0,1.696e-11
2535.0,3.75e-12
2540.0,8.897e-12
2545.0,6.9e-16
2550.0,2.798e-18
2555.0,1.343e-14
2560.0,4.03e-16
2565.0,9.022000000000001e-20
2570.0,2.686e-24
2575.0,1.699e-34
2580.0,1.772e-28
2585.0,3.7040000000000004e-42
2590.0,2.311e-38
2595.0,4.496e-40
2600.0,3.702e-35
2605.0,4.0920000000000004e-42
2610.0,1.408e-41
2615.0,1.4009999999999999e-45
2620.0,1.241e-35
2625.0,2.2730000000000002e-35
2630.0,0.0
2635.0,1.183e-21
2640.0,2.562e-22
2645.0,1.117e-24
2650.0,1.112e-25
2655.0,1.338e-34
2660.0,1.126e-31
2665.0,1.121e-44
2670.0,0.0
2675.0,5.464999999999999e-44
2680.0,2.284e-30
2685.0,2.182e-31
2690.0,8.163e-31
2695.0,3.202e-33
2700.0,9.329e-29
2705.0,2.6460000000000004e-26
2710.0,2.107e-31
2715.0,2.6599999999999997e-29
2720.0,0.0
2725.0,5.9569999999999995e-27
2730.0,1.737e-24
2735.0,1.98e-26
2740.0,3.577e-32
2745.0,4.612e-27
2750.0,2.585e-26
2755.0,4.16e-28
2760.0,6.232e-23
2765.0,2.925e-29
2770.0,1.437e-26
2775.0,1.774e-23
2780.0,8.261e-21
2785.0,3.1020000000000004e-20
2790.0,7.073e-18
2795.0,1.556e-18
2800.0,4.967e-15
2805.0,9.287e-17
2810.0,3.724e-13
2815.0,1.111e-13
2820.0,1.357e-15
2825.0,3.959e-11
2830.0,2.589e-10
2835.0,3.566e-15
2840.0,7.631e-12
2845.0,2.641e-09
2850.0,4.571e-11
2855.0,2.322e-11
2860.0,9.496e-10
2865.0,6.999e-09
2870.0,1.776e-10
2875.0,1.704e-08
2880.0,1.074e-08
2885.0,1.769e-08
2890.0,8.189e-09
2895.0,1.282e-07
2900.0,3.572e-08
2905.0,4.135e-09
2910.0,1.307e-07
2915.0,5.548e-08
2920.0,1.377e-07
2925.0,4.908e-08
2930.0,2.97e-07
2935.0,3.275e-07
2940.0,7.332e-08
2945.0,6.297e-08
2950.0,2.541e-07
2955.0,1.132e-07
2960.0,2.246e-07
2965.0,3.801e-07
2970.0,1.49e-08
2975.0,3.774e-08
2980.0,5.873e-08
2985.0,3.456e-07
2990.0,5.282e-07
2995.0,2.018e-07
3000.0,3.788e-07
3005.0,1.286e-07
3010.0,3.319e-07
3015.0,2.567e-07
3020.0,2.317e-08
3025.0,3.532e-07
3030.0,2.785e-07
3035.0,1.058e-07
3040.0,8.267e-08
3045.0,1.776e-07
3050.0,4.025e-08
3055.0,9.903e-09
3060.0,2.764e-07
3065.0,1.17e-07
3070.0,6.575e-08
3075.0,2.576e-07
3080.0,1.497e-07
3085.0,6.609e-08
3090.0,8.987e-08
3095.0,2.211e-08
3100.0,1.796e-07
3105.0,3.366e-08
3110.0,2.817e-08
3115.0,8.454e-08
3120.0,4.142e-07
3125.0,1.418e-06
3130.0,2.416e-07
3135.0,4.853e-07
3140.0,1.288e-07
3145.0,1.262e-07
3150.0,2.664e-07
3155.0,2.258e-07
3160.0,3.74e-07
3165.0,6.167e-07
3170.0,6.031e-07
3175.0,3.636e-07
3180.0,4.426e-07
3185.0,2.997e-07
3190.0,1.582e-07
3195.0,8.721e-08
3200.0,1.231e-08
3205.0,8.041e-09
3210.0,3.35e-09
3215.0,1.362e-08
3220.0,4.781e-08
3225.0,5.498e-09
3230.0,9.132e-09
3235.0,2.559e-07
3240.0,1.163e-07
3245.0,2.209e-08
3250.0,8.147e-08
3255.0,3.49e-07
3260.0,3.487e-08
3265.0,7.545e-08
3270.0,3.553e-08
3275.0,2.144e-07
3280.0,9.107e-08
3285.0,3.959e-07
3290.0,2.967e-07
3295.0,3.655e-08
3300.0,5.426e-08
3305.0,1.246e-07
3310.0,1.183e-07
3315.0,1.715e-10
3320.0,1.08e-09
3325.0,9.935e-08
3330.0,1.515e-07
3335.0,2.929e-07
3340.0,1.216e-06
3345.0,1.045e-07
3350.0,2.66e-07
3355.0,1.058e-07
3360.0,1.625e-07
3365.0,2.601e-07
3370.0,1.108e-07
3375.0,3.9e-07
3380.0,1.458e-07
3385.0,6.092e-07
3390.0,3.176e-07
3395.0,4.732e-07
3400.0,3.815e-06
3405.0,1.215e-07
3410.0,6.191e-07
3415.0,2.08e-07
3420.0,1.209e-05
3425.0,3.778e-07
3430.0,2.534e-07
3435.0,1.056e-05
3440.0,2.291e-07
3445.0,3.279e-06
3450.0,1.05e-06
3455.0,3.291e-07
3460.0,1.468e-05
3465.0,3.485e-07
3470.0,1.418e-05
3475.0,1.748e-06
3480.0,1.77e-06
3485.0,1.132e-05
3490.0,9.311e-07
3495.0,1.2e-05
3500.0,1.197e-05
3505.0,9.216e-06
3510.0,1.077e-05
3515.0,9.05e-06
3520.0,1.86e-05
3525.0,1.643e-05
3530.0,7.829e-06
3535.0,9.183e-07
3540.0,7.004e-07
3545.0,7.017e-07
3550.0,6.701e-06
3555.0,1.244e-06
3560.0,1.173e-05
3565.0,5.125e-06
3570.0,1.272e-06
3575.0,6.856e-07
3580.0,5.223e-06
3585.0,1.281e-06
3590.0,3.605e-06
3595.0,1.131e-05
3600.0,1.689e-05
3605.0,5.81e-06
3610.0,4.144e-06
3615.0,1.254e-05
3620.0,4.669e-05
3625.0,8.54e-06
3630.0,1.501e-05
3635.0,1.862e-05
3640.0,6e-05
3645.0,1.26e-05
3650.0,1.468e-05
3655.0,3.363e-05
3660.0,4.263e-05
3665.0,9.121e-06
3670.0,3.882e-06
3675.0,1.619e-07
3680.0,2.18e-06
3685.0,5.787e-06
3690.0,5.717e-06
3695.0,2.266e-05
3700.0,6.064e-05
3705.0,5.667e-05
3710.0,1.073e-05
3715.0,1.903e-05
3720.0,3.844e-05
3725.0,4.775e-05
3730.0,1.733e-05
3735.0,8.299e-06
3740.0,1.666e-05
3745.0,4.469e-05
3750.0,2.605e-05
3755.0,1.638e-05
3760.0,8.621e-06
3765.0,1.095e-05
3770.0,1.564e-05
3775.0,1.822e-05
3780.0,3.233e-05
3785.0,1.729e-05
3790.0,7.198e-06
3795.0,2.46e-05
3800.0,4.664e-05
3805.0,3.258e-05
3810.0,1.263e-05
3815.0,9.674e-06
3820.0,4.588e-05
3825.0,4.539e-05
3830.0,4.744e-05
3835.0,7.213e-06
3840.0,2.499e-05
3845.0,1.565e-05
3850.0,1.578e-05
3855.0,1.199e-05
3860.0,2.938e-06
3865.0,3.196e-06
3870.0,6.97e-07
3875.0,2.338e-07
3880.0,1.676e-07
3885.0,2.29e-07
3890.0,2.779e-07
3895.0,9.129e-07
3900.0,3.993e-06
3905.0,3.277e-06
3910.0,4.984e-07
3915.0,3.869e-07
3920.0,4.137e-07
3925.0,3.91e-07
3930.0,5.465e-07
3935.0,1.128e-06
3940.0,1.425e-06
3945.0,2.122e-06
3950.0,3.269e-06
3955.0,4.072e-06
3960.0,4.956e-06
3965.0,5.789e-06
3970.0,4.902e-06
3975.0,3.218e-06
3980.0,2.716e-06
3985.0,3.188e-06
3990.0,2.708e-06
3995.0,1.952e-06
4000.0,1.415e-06
