interpolation:linear
wavelength,value
280.0,6.426e-23
280.5,2.154e-21
281.0,1.1650000000000002e-20
281.5,3.775e-19
282.0,5.07e-19
282.5,1.198e-18
283.0,3.718e-18
283.5,6.041e-18
284.0,9.917e-17
284.5,2.908e-16
285.0,6.293e-16
285.5,2.828e-15
286.0,1.121e-14
286.5,4.926e-14
287.0,1.402e-13
287.5,5.378e-13
288.0,1.808e-12
288.5,5.187e-12
289.0,1.342e-11
289.5,3.984e-11
290.0,1.099e-10
290.5,2.238e-10
291.0,4.805e-10
291.5,1.382e-09
292.0,2.823e-09
292.5,3.931e-09
293.0,8.355e-09
293.5,2.011e-08
294.0,3.135e-08
294.5,3.961e-08
295.0,6.667e-08
295.5,1.134e-07
296.0,2.138e-07
296.5,2.915e-07
297.0,3.855e-07
297.5,9.972e-07
298.0,1.519e-06
298.5,1.485e-06
299.0,3.178e-06
299.5,4.988e-06
300.0,5.301e-06
300.5,7.399e-06
301.0,1.256e-05
301.5,1.881e-05
302.0,1.556e-05
302.5,2.987e-05
303.0,5.261e-05
303.5,6.603e-05
304.0,6.328e-05
304.5,9.99e-05
305.0,0.000165
305.5,0.0002001
306.0,0.000198
306.5,0.0002562
307.0,0.0004155
307.5,0.0006039
308.0,0.0006469
308.5,0.0007992
309.0,0.0009211
309.5,0.001272
310.0,0.001393
310.5,0.002356
311.0,0.003173
311.5,0.003158
312.0,0.003682
312.5,0.00496
313.0,0.005674
313.5,0.005241
314.0,0.007405
314.5,0.007725
315.0,0.01045
315.5,0.00807
316.0,0.008043
316.5,0.01294
317.0,0.01603
317.5,0.01614
318.0,0.01361
318.5,0.01962
319.0,0.0251
319.5,0.01811
320.0,0.02148
320.5,0.03131
321.0,0.032
321.5,0.0311
322.0,0.02858
322.5,0.02504
323.0,0.02746
323.5,0.03839
324.0,0.04558
324.5,0.04428
325.0,0.03511
325.5,0.04882
326.0,0.06362
326.5,0.06733
327.0,0.06574
327.5,0.06185
328.0,0.05109
328.5,0.05877
329.0,0.07549
329.5,0.08753
330.0,0.08678
330.5,0.06578
331.0,0.06578
331.5,0.06962
332.0,0.07972
332.5,0.08096
333.0,0.0795
333.5,0.06893
334.0,0.07012
334.5,0.08496
335.0,0.08212
335.5,0.09712
336.0,0.06721
336.5,0.07667
337.0,0.06163
337.5,0.07609
338.0,0.07734
338.5,0.09084
339.0,0.09017
339.5,0.08662
340.0,0.1002
340.5,0.09066
341.0,0.08966
341.5,0.08274
342.0,0.09905
342.5,0.09284
343.0,0.1018
343.5,0.09568
344.0,0.06975
344.5,0.07121
345.0,0.09481
345.5,0.09709
346.0,0.08269
346.5,0.09378
347.0,0.1004
347.5,0.08117
348.0,0.09288
348.5,0.09305
349.0,0.08644
349.5,0.08561
350.0,0.106
350.5,0.1118
351.0,0.09976
351.5,0.0966
352.0,0.1041
352.5,0.08144
353.0,0.1028
353.5,0.1101
354.0,0.1144
354.5,0.116
355.0,0.1156
355.5,0.1046
356.0,0.1095
356.5,0.09356
357.0,0.07732
357.5,0.09471
358.0,0.07512
358.5,0.06423
359.0,0.08983
359.5,0.1144
360.0,0.1214
360.5,0.0971
361.0,0.08862
361.5,0.1022
362.0,0.0885
362.5,0.1226
363.0,0.1103
363.5,0.1017
364.0,0.1244
364.5,0.1064
365.0,0.1085
365.5,0.1362
366.0,0.1445
366.5,0.1359
367.0,0.1325
367.5,0.1375
368.0,0.1205
368.5,0.1216
369.0,0.1315
369.5,0.1402
370.0,0.1496
370.5,0.1162
371.0,0.1243
371.5,0.1556
372.0,0.1034
372.5,0.124
373.0,0.1263
373.5,0.08225
374.0,0.1196
374.5,0.09915
375.0,0.09645
375.5,0.1441
376.0,0.1195
376.5,0.1239
377.0,0.1313
377.5,0.1538
378.0,0.1668
378.5,0.1577
379.0,0.1302
379.5,0.119
380.0,0.1238
380.5,0.1501
381.0,0.1506
381.5,0.1195
382.0,0.1063
382.5,0.09074
383.0,0.0841
383.5,0.08109
384.0,0.08953
384.5,0.1318
385.0,0.1308
385.5,0.122
386.0,0.1046
386.5,0.1375
387.0,0.1144
387.5,0.1286
388.0,0.1188
388.5,0.1176
389.0,0.127
389.5,0.154
390.0,0.1547
390.5,0.1425
391.0,0.1679
391.5,0.1714
392.0,0.1444
392.5,0.1295
393.0,0.07212
393.5,0.05248
394.0,0.1069
394.5,0.136
395.0,0.1661
395.5,0.1689
396.0,0.1465
396.5,0.08579
397.0,0.06445
397.5,0.1312
398.0,0.1838
398.5,0.1901
399.0,0.2062
399.5,0.2057
400.0,0.2137
401.0,0.2142
402.0,0.2265
403.0,0.2157
404.0,0.2127
405.0,0.213
406.0,0.2101
407.0,0.2071
408.0,0.2154
409.0,0.2309
410.0,0.2022
411.0,0.2194
412.0,0.2363
413.0,0.2307
414.0,0.234
415.0,0.2351
416.0,0.2398
417.0,0.2342
418.0,0.2302
419.0,0.2337
420.0,0.233
421.0,0.2442
422.0,0.2324
423.0,0.2274
424.0,0.2407
425.0,0.2407
426.0,0.2352
427.0,0.2311
428.0,0.2254
429.0,0.2142
430.0,0.1878
431.0,0.1862
432.0,0.2409
433.0,0.2426
434.0,0.2255
435.0,0.2357
436.0,0.2663
437.0,0.2634
438.0,0.2402
439.0,0.2481
440.0,0.2564
441.0,0.2662
442.0,0.2858
443.0,0.2783
444.0,0.285
445.0,0.2789
446.0,0.2671
447.0,0.2896
448.0,0.2939
449.0,0.296
450.0,0.3047
451.0,0.3164
452.0,0.3053
453.0,0.2876
454.0,0.3009
455.0,0.3029
456.0,0.3104
457.0,0.3157
458.0,0.3046
459.0,0.3032
460.0,0.3039
461.0,0.3111
462.0,0.3141
463.0,0.3121
464.0,0.308
465.0,0.3051
466.0,0.3088
467.0,0.303
468.0,0.3067
469.0,0.3083
470.0,0.2984
471.0,0.2983
472.0,0.3144
473.0,0.3104
474.0,0.3104
475.0,0.3124
476.0,0.3021
477.0,0.3023
478.0,0.3109
479.0,0.3095
480.0,0.3105
481.0,0.3171
482.0,0.3196
483.0,0.3167
484.0,0.3109
485.0,0.2969
486.0,0.2603
487.0,0.2734
488.0,0.3
489.0,0.3008
490.0,0.3169
491.0,0.3119
492.0,0.2947
493.0,0.3046
494.0,0.3078
495.0,0.3107
496.0,0.3126
497.0,0.3174
498.0,0.3025
499.0,0.306
500.0,0.2965
501.0,0.2905
502.0,0.2852
503.0,0.2956
504.0,0.2848
505.0,0.2977
506.0,0.3073
507.0,0.2926
508.0,0.2845
509.0,0.2934
510.0,0.2926
511.0,0.3012
512.0,0.3049
513.0,0.2887
514.0,0.287
515.0,0.2841
516.0,0.2833
517.0,0.2519
518.0,0.2647
519.0,0.2776
520.0,0.2875
521.0,0.2901
522.0,0.29
523.0,0.2846
524.0,0.294
525.0,0.2965
526.0,0.2829
527.0,0.2658
528.0,0.2805
529.0,0.2951
530.0,0.2905
531.0,0.2945
532.0,0.2842
533.0,0.2759
534.0,0.2843
535.0,0.291
536.0,0.294
537.0,0.2828
538.0,0.288
539.0,0.2856
540.0,0.2736
541.0,0.2742
542.0,0.2823
543.0,0.2801
544.0,0.284
545.0,0.2834
546.0,0.2838
547.0,0.2844
548.0,0.2814
549.0,0.2825
550.0,0.2859
551.0,0.2826
552.0,0.2846
553.0,0.2793
554.0,0.2859
555.0,0.2862
556.0,0.2823
557.0,0.2732
558.0,0.2706
559.0,0.2649
560.0,0.2678
561.0,0.2707
562.0,0.268
563.0,0.2745
564.0,0.2664
565.0,0.2635
566.0,0.2591
567.0,0.2633
568.0,0.259
569.0,0.2494
570.0,0.2498
571.0,0.2491
572.0,0.2527
573.0,0.2549
574.0,0.2536
575.0,0.248
576.0,0.2458
577.0,0.2488
578.0,0.2461
579.0,0.2488
580.0,0.2561
581.0,0.2595
582.0,0.2662
583.0,0.2683
584.0,0.2716
585.0,0.2656
586.0,0.2602
587.0,0.2648
588.0,0.2541
589.0,0.2168
590.0,0.2273
591.0,0.2456
592.0,0.2396
593.0,0.2469
594.0,0.2437
595.0,0.2342
596.0,0.2506
597.0,0.2459
598.0,0.2474
599.0,0.2485
600.0,0.2506
601.0,0.2499
602.0,0.2485
603.0,0.2533
604.0,0.2579
605.0,0.257
606.0,0.2568
607.0,0.2602
608.0,0.2581
609.0,0.2592
610.0,0.2581
611.0,0.2601
612.0,0.2598
613.0,0.257
614.0,0.2542
615.0,0.2604
616.0,0.2524
617.0,0.2523
618.0,0.2625
619.0,0.2601
620.0,0.2617
621.0,0.2614
622.0,0.258
623.0,0.2538
624.0,0.2499
625.0,0.2491
626.0,0.2526
627.0,0.2536
628.0,0.2165
629.0,0.2404
630.0,0.2341
631.0,0.2464
632.0,0.2448
633.0,0.2551
634.0,0.255
635.0,0.2602
636.0,0.2581
637.0,0.2634
638.0,0.2676
639.0,0.2655
640.0,0.264
641.0,0.2646
642.0,0.2644
643.0,0.2681
644.0,0.2681
645.0,0.2681
646.0,0.2593
647.0,0.2503
648.0,0.2513
649.0,0.2453
650.0,0.2541
651.0,0.2664
652.0,0.2483
653.0,0.2635
654.0,0.261
655.0,0.2477
656.0,0.2221
657.0,0.2286
658.0,0.2587
659.0,0.2615
660.0,0.2633
661.0,0.2656
662.0,0.265
663.0,0.2602
664.0,0.2652
665.0,0.267
666.0,0.2679
667.0,0.2684
668.0,0.2694
669.0,0.2741
670.0,0.2734
671.0,0.2738
672.0,0.2717
673.0,0.2762
674.0,0.2756
675.0,0.2734
676.0,0.2757
677.0,0.2733
678.0,0.2743
679.0,0.2702
680.0,0.2726
681.0,0.2709
682.0,0.2706
683.0,0.2702
684.0,0.2688
685.0,0.2715
686.0,0.2695
687.0,0.09982
688.0,0.1472
689.0,0.1489
690.0,0.1684
691.0,0.1926
692.0,0.213
693.0,0.2109
694.0,0.2123
695.0,0.232
696.0,0.2332
697.0,0.2595
698.0,0.2553
699.0,0.2405
700.0,0.2372
701.0,0.2309
702.0,0.236
703.0,0.2378
704.0,0.2506
705.0,0.2507
706.0,0.2524
707.0,0.2535
708.0,0.2538
709.0,0.2579
710.0,0.2558
711.0,0.2569
712.0,0.2579
713.0,0.2535
714.0,0.2551
715.0,0.2433
716.0,0.2426
717.0,0.1802
718.0,0.1638
719.0,0.1478
720.0,0.1515
721.0,0.1835
722.0,0.2281
723.0,0.2037
724.0,0.1723
725.0,0.1665
726.0,0.1749
727.0,0.1849
728.0,0.1648
729.0,0.1811
730.0,0.1884
731.0,0.1788
732.0,0.2025
733.0,0.224
734.0,0.2329
735.0,0.2262
736.0,0.225
737.0,0.2263
738.0,0.2385
739.0,0.2342
740.0,0.2428
741.0,0.2419
742.0,0.2439
743.0,0.2506
744.0,0.2509
745.0,0.2519
746.0,0.253
747.0,0.2538
748.0,0.2534
749.0,0.2506
750.0,0.2506
751.0,0.2481
752.0,0.2493
753.0,0.2507
754.0,0.2512
755.0,0.2498
756.0,0.2498
757.0,0.2501
758.0,0.2468
759.0,0.2357
760.0,0.004682
761.0,0.001764
762.0,0.04773
763.0,0.01023
764.0,0.02435
765.0,0.04751
766.0,0.08209
767.0,0.1381
768.0,0.1959
769.0,0.2094
770.0,0.2277
771.0,0.2347
772.0,0.2368
773.0,0.2389
774.0,0.2381
775.0,0.2366
776.0,0.2396
777.0,0.2365
778.0,0.235
779.0,0.2352
780.0,0.234
781.0,0.2343
782.0,0.2359
783.0,0.2319
784.0,0.2333
785.0,0.2311
786.0,0.2333
787.0,0.2246
788.0,0.2198
789.0,0.2198
790.0,0.2084
791.0,0.2159
792.0,0.2153
793.0,0.2112
794.0,0.2205
795.0,0.2226
796.0,0.2076
797.0,0.2069
798.0,0.2213
799.0,0.2185
800.0,0.2128
801.0,0.21
802.0,0.2091
803.0,0.2064
804.0,0.2077
805.0,0.2096
806.0,0.2198
807.0,0.2163
808.0,0.2167
809.0,0.2093
810.0,0.2058
811.0,0.2029
812.0,0.1903
813.0,0.1849
814.0,0.1494
815.0,0.1498
816.0,0.1372
817.0,0.14
818.0,0.1318
819.0,0.1584
820.0,0.1457
821.0,0.1882
822.0,0.1798
823.0,0.0969
824.0,0.1675
825.0,0.1854
826.0,0.172
827.0,0.1878
828.0,0.1417
829.0,0.1723
830.0,0.1691
831.0,0.1694
832.0,0.161
833.0,0.179
834.0,0.1679
835.0,0.1978
836.0,0.1795
837.0,0.1982
838.0,0.1873
839.0,0.1952
840.0,0.2007
841.0,0.1958
842.0,0.1994
843.0,0.2028
844.0,0.1982
845.0,0.2072
846.0,0.207
847.0,0.2041
848.0,0.2013
849.0,0.1956
850.0,0.1875
851.0,0.1969
852.0,0.1964
853.0,0.1902
854.0,0.1632
855.0,0.1808
856.0,0.197
857.0,0.2024
858.0,0.2004
859.0,0.2013
860.0,0.2022
861.0,0.2009
862.0,0.2043
863.0,0.2091
864.0,0.1988
865.0,0.1972
866.0,0.1773
867.0,0.1851
868.0,0.2015
869.0,0.1974
870.0,0.203
871.0,0.2002
872.0,0.1996
873.0,0.1993
874.0,0.1969
875.0,0.1929
876.0,0.1948
877.0,0.1968
878.0,0.1987
879.0,0.1957
880.0,0.1916
881.0,0.1879
882.0,0.1917
883.0,0.1931
884.0,0.1919
885.0,0.1933
886.0,0.1816
887.0,0.1856
888.0,0.1873
889.0,0.1915
890.0,0.1871
891.0,0.1882
892.0,0.1792
893.0,0.1706
894.0,0.1572
895.0,0.1398
896.0,0.1297
897.0,0.1024
898.0,0.1156
899.0,0.07828
900.0,0.1243
901.0,0.08207
902.0,0.1085
903.0,0.1049
904.0,0.1554
905.0,0.1474
906.0,0.1351
907.0,0.09415
908.0,0.09971
909.0,0.113
910.0,0.08967
911.0,0.1047
912.0,0.1087
913.0,0.09045
914.0,0.09204
915.0,0.09823
916.0,0.08217
917.0,0.1143
918.0,0.08316
919.0,0.1203
920.0,0.1309
921.0,0.1348
922.0,0.1128
923.0,0.1314
924.0,0.1125
925.0,0.1108
926.0,0.1102
927.0,0.1308
928.0,0.07422
929.0,0.06255
930.0,0.04065
931.0,0.03788
932.0,0.02041
933.0,0.01418
934.0,0.003872
935.0,0.01619
936.0,0.007158
937.0,0.00726
938.0,0.009837
939.0,0.03645
940.0,0.04979
941.0,0.0306
942.0,0.03845
943.0,0.02044
944.0,0.02663
945.0,0.03313
946.0,0.01082
947.0,0.03152
948.0,0.02266
949.0,0.04933
950.0,0.006189
951.0,0.04876
952.0,0.01871
953.0,0.02902
954.0,0.04149
955.0,0.03014
956.0,0.03744
957.0,0.01858
958.0,0.05861
959.0,0.03791
960.0,0.04267
961.0,0.05483
962.0,0.05183
963.0,0.06626
964.0,0.05898
965.0,0.06512
966.0,0.06517
967.0,0.06363
968.0,0.1141
969.0,0.1138
970.0,0.1026
971.0,0.1305
972.0,0.1215
973.0,0.09285
974.0,0.08772
975.0,0.09438
976.0,0.08221
977.0,0.1099
978.0,0.09757
979.0,0.1054
980.0,0.0977
981.0,0.13
982.0,0.1195
983.0,0.1123
984.0,0.1406
985.0,0.1185
986.0,0.1474
987.0,0.1407
988.0,0.1408
989.0,0.1499
990.0,0.1397
991.0,0.1498
992.0,0.1512
993.0,0.1436
994.0,0.1518
995.0,0.1523
996.0,0.1509
997.0,0.1515
998.0,0.1504
999.0,0.1501
1000.0,0.1478
1001.0,0.1511
1002.0,0.1417
1003.0,0.1481
1004.0,0.1431
1005.0,0.1397
1006.0,0.1443
1007.0,0.1478
1008.0,0.1461
1009.0,0.1443
1010.0,0.1432
1011.0,0.1472
1012.0,0.145
1013.0,0.1471
1014.0,0.1461
1015.0,0.145
1016.0,0.1442
1017.0,0.1444
1018.0,0.1445
1019.0,0.1394
1020.0,0.1434
1021.0,0.1436
1022.0,0.1417
1023.0,0.1431
1024.0,0.1393
1025.0,0.1437
1026.0,0.1425
1027.0,0.1423
1028.0,0.1419
1029.0,0.14
1030.0,0.1417
1031.0,0.1408
1032.0,0.1406
1033.0,0.1385
1034.0,0.1385
1035.0,0.139
1036.0,0.1394
1037.0,0.1373
1038.0,0.1378
1039.0,0.1376
1040.0,0.137
1041.0,0.1374
1042.0,0.1364
1043.0,0.1358
1044.0,0.1362
1045.0,0.1342
1046.0,0.1326
1047.0,0.1336
1048.0,0.1342
1049.0,0.1335
1050.0,0.1327
1051.0,0.1323
1052.0,0.1316
1053.0,0.1303
1054.0,0.1303
1055.0,0.1301
1056.0,0.1293
1057.0,0.1286
1058.0,0.1251
1059.0,0.1249
1060.0,0.1246
1061.0,0.1243
1062.0,0.1246
1063.0,0.1231
1064.0,0.1246
1065.0,0.123
1066.0,0.1211
1067.0,0.1225
1068.0,0.1193
1069.0,0.1161
1070.0,0.1196
1071.0,0.1231
1072.0,0.1204
1073.0,0.1189
1074.0,0.124
1075.0,0.1135
1076.0,0.1236
1077.0,0.1191
1078.0,0.1155
1079.0,0.1226
1080.0,0.1171
1081.0,0.111
1082.0,0.1167
1083.0,0.1183
1084.0,0.1099
1085.0,0.1177
1086.0,0.1017
1087.0,0.1087
1088.0,0.1175
1089.0,0.109
1090.0,0.1048
1091.0,0.1159
1092.0,0.1163
1093.0,0.08749
1094.0,0.105
1095.0,0.09116
1096.0,0.08451
1097.0,0.1136
1098.0,0.08129
1099.0,0.08623
1100.0,0.07639
1101.0,0.07904
1102.0,0.07242
1103.0,0.0696
1104.0,0.07012
1105.0,0.08318
1106.0,0.04838
1107.0,0.0764
1108.0,0.0556
1109.0,0.05663
1110.0,0.07306
1111.0,0.03733
1112.0,0.05668
1113.0,0.02547
1114.0,0.02856
1115.0,0.0226
1116.0,0.01356
1117.0,0.002206
1118.0,0.01544
1119.0,0.004689
1120.0,0.00541
1121.0,0.008367
1122.0,0.001772
1123.0,0.004957
1124.0,0.004147
1125.0,0.006127
1126.0,0.0006916
1127.0,0.007057
1128.0,0.002323
1129.0,0.002578
1130.0,0.0016
1131.0,0.02067
1132.0,0.01455
1133.0,0.005652
1134.0,0.0005207
1135.0,0.0002487
1136.0,0.003733
1137.0,0.01888
1138.0,0.0123
1139.0,0.02868
1140.0,0.01982
1141.0,0.01185
1142.0,0.01523
1143.0,0.02658
1144.0,0.005326
1145.0,0.005346
1146.0,0.005744
1147.0,0.0007466
1148.0,0.02193
1149.0,0.01484
1150.0,0.006759
1151.0,0.01226
1152.0,0.01822
1153.0,0.02053
1154.0,0.005763
1155.0,0.02987
1156.0,0.0246
1157.0,0.03337
1158.0,0.03282
1159.0,0.03735
1160.0,0.0309
1161.0,0.04505
1162.0,0.04435
1163.0,0.07454
1164.0,0.05883
1165.0,0.05052
1166.0,0.05462
1167.0,0.06188
1168.0,0.06175
1169.0,0.06429
1170.0,0.07461
1171.0,0.07275
1172.0,0.07755
1173.0,0.07454
1174.0,0.04349
1175.0,0.07621
1176.0,0.09077
1177.0,0.08224
1178.0,0.05397
1179.0,0.09134
1180.0,0.07407
1181.0,0.07662
1182.0,0.04363
1183.0,0.07686
1184.0,0.06873
1185.0,0.06336
1186.0,0.08525
1187.0,0.0778
1188.0,0.04241
1189.0,0.07207
1190.0,0.0843
1191.0,0.07305
1192.0,0.08618
1193.0,0.08015
1194.0,0.08425
1195.0,0.07494
1196.0,0.06976
1197.0,0.08591
1198.0,0.07706
1199.0,0.05619
1200.0,0.07927
1201.0,0.07274
1202.0,0.07584
1203.0,0.0727
1204.0,0.06015
1205.0,0.07995
1206.0,0.09283
1207.0,0.07407
1208.0,0.07579
1209.0,0.07757
1210.0,0.08312
1211.0,0.07606
1212.0,0.06927
1213.0,0.08682
1214.0,0.07287
1215.0,0.07119
1216.0,0.0874
1217.0,0.08331
1218.0,0.08649
1219.0,0.08414
1220.0,0.08679
1221.0,0.08909
1222.0,0.08594
1223.0,0.08423
1224.0,0.08143
1225.0,0.08793
1226.0,0.09024
1227.0,0.07781
1228.0,0.09168
1229.0,0.0903
1230.0,0.08774
1231.0,0.09356
1232.0,0.09287
1233.0,0.08523
1234.0,0.09458
1235.0,0.0932
1236.0,0.0945
1237.0,0.09152
1238.0,0.0942
1239.0,0.09295
1240.0,0.09356
1241.0,0.09184
1242.0,0.09277
1243.0,0.0921
1244.0,0.09234
1245.0,0.09298
1246.0,0.09249
1247.0,0.09176
1248.0,0.09103
1249.0,0.09191
1250.0,0.09095
1251.0,0.08895
1252.0,0.09002
1253.0,0.08741
1254.0,0.08517
1255.0,0.08944
1256.0,0.0835
1257.0,0.08235
1258.0,0.0866
1259.0,0.0783
1260.0,0.07934
1261.0,0.06882
1262.0,0.06374
1263.0,0.06371
1264.0,0.05242
1265.0,0.06341
1266.0,0.05714
1267.0,0.06083
1268.0,0.05349
1269.0,0.01507
1270.0,0.05953
1271.0,0.06947
1272.0,0.07021
1273.0,0.06879
1274.0,0.06996
1275.0,0.07203
1276.0,0.07396
1277.0,0.07615
1278.0,0.07996
1279.0,0.07928
1280.0,0.07831
1281.0,0.07592
1282.0,0.0751
1283.0,0.08047
1284.0,0.08207
1285.0,0.08296
1286.0,0.08513
1287.0,0.08185
1288.0,0.08253
1289.0,0.07603
1290.0,0.08193
1291.0,0.08381
1292.0,0.07204
1293.0,0.08068
1294.0,0.07986
1295.0,0.07695
1296.0,0.06967
1297.0,0.06333
1298.0,0.07406
1299.0,0.08131
1300.0,0.05939
1301.0,0.06255
1302.0,0.07417
1303.0,0.05931
1304.0,0.04273
1305.0,0.07216
1306.0,0.07091
1307.0,0.04643
1308.0,0.06077
1309.0,0.06862
1310.0,0.0446
1311.0,0.0563
1312.0,0.05404
1313.0,0.05041
1314.0,0.04204
1315.0,0.04003
1316.0,0.05384
1317.0,0.0496
1318.0,0.05752
1319.0,0.03564
1320.0,0.03598
1321.0,0.04545
1322.0,0.04402
1323.0,0.02604
1324.0,0.03544
1325.0,0.05153
1326.0,0.03985
1327.0,0.03659
1328.0,0.02885
1329.0,0.01608
1330.0,0.02419
1331.0,0.009488
1332.0,0.01088
1333.0,0.0161
1334.0,0.01753
1335.0,0.02498
1336.0,0.0165
1337.0,0.01427
1338.0,0.01497
1339.0,0.0154
1340.0,0.01654
1341.0,0.01237
1342.0,0.0136
1343.0,0.004978
1344.0,0.003351
1345.0,0.004273
1346.0,0.000822
1347.0,0.0006726
1348.0,1.007e-05
1349.0,4.465e-05
1350.0,5.294e-05
1351.0,5.112e-06
1352.0,9.807e-07
1353.0,4.912e-08
1354.0,1.721e-07
1355.0,1.353e-09
1356.0,2.38e-08
1357.0,3.614e-08
1358.0,1.589e-09
1359.0,2.001e-10
1360.0,7.233e-10
1361.0,8.091e-13
1362.0,2.213e-15
1363.0,9.725e-10
1364.0,4.015e-10
1365.0,7.727e-16
1366.0,4.215e-09
1367.0,1.72e-09
1368.0,5.966e-18
1369.0,1.479e-10
1370.0,7.286e-11
1371.0,4.13e-12
1372.0,9.331e-10
1373.0,1.882e-08
1374.0,8.763e-08
1375.0,1.584e-07
1376.0,1.461e-07
1377.0,6.637e-08
1378.0,6.444e-07
1379.0,2.791e-08
1380.0,3.915e-08
1381.0,1.019e-09
1382.0,8.178e-10
1383.0,1.223e-11
1384.0,1.603e-10
1385.0,7.67e-10
1386.0,7.21e-10
1387.0,8.725e-08
1388.0,1.725e-09
1389.0,2.972e-07
1390.0,2.542e-07
1391.0,1.693e-07
1392.0,1.102e-08
1393.0,5.894e-08
1394.0,2.976e-08
1395.0,2.18e-10
1396.0,1.053e-12
1397.0,2.3e-08
1398.0,6.8e-07
1399.0,4.317e-07
1400.0,4.504e-13
1401.0,1.869e-12
1402.0,1.735e-06
1403.0,1.803e-06
1404.0,5.073e-07
1405.0,1.032e-10
1406.0,1.204e-06
1407.0,1.374e-07
1408.0,9.918e-07
1409.0,3.173e-07
1410.0,2.722e-07
1411.0,1.615e-06
1412.0,2.731e-06
1413.0,5.876e-05
1414.0,2.19e-07
1415.0,9.988e-08
1416.0,0.0003408
1417.0,5.106e-05
1418.0,2.846e-05
1419.0,3.879e-06
1420.0,1.709e-05
1421.0,3.429e-05
1422.0,0.0004393
1423.0,7.73e-05
1424.0,0.0002073
1425.0,0.0002002
1426.0,0.0004099
1427.0,0.001025
1428.0,7.263e-06
1429.0,0.0005113
1430.0,0.001706
1431.0,0.002085
1432.0,5.585e-06
1433.0,0.001052
1434.0,0.0004196
1435.0,0.0001674
1436.0,0.0006892
1437.0,0.0005433
1438.0,0.0001457
1439.0,0.001058
1440.0,0.0009364
1441.0,0.000406
1442.0,0.00035
1443.0,0.0008073
1444.0,0.001696
1445.0,0.0007756
1446.0,0.0002155
1447.0,0.0005143
1448.0,0.005664
1449.0,0.004433
1450.0,0.0004548
1451.0,0.0001333
1452.0,0.001694
1453.0,0.002531
1454.0,0.008872
1455.0,0.002477
1456.0,0.003114
1457.0,0.006066
1458.0,0.01031
1459.0,0.01223
1460.0,0.004713
1461.0,0.003402
1462.0,0.007938
1463.0,0.001443
1464.0,0.01192
1465.0,0.006399
1466.0,0.001774
1467.0,0.0006142
1468.0,0.002606
1469.0,0.004366
1470.0,0.0006807
1471.0,0.0002966
1472.0,0.0006279
1473.0,0.00201
1474.0,0.005552
1475.0,0.01615
1476.0,0.00268
1477.0,0.002215
1478.0,0.003199
1479.0,0.00808
1480.0,0.001916
1481.0,0.00674
1482.0,0.002652
1483.0,0.01123
1484.0,0.01214
1485.0,0.009851
1486.0,0.007815
1487.0,0.001952
1488.0,0.006597
1489.0,0.01997
1490.0,0.01983
1491.0,0.02467
1492.0,0.01448
1493.0,0.01924
1494.0,0.02637
1495.0,0.02165
1496.0,0.01902
1497.0,0.03659
1498.0,0.02521
1499.0,0.0316
1500.0,0.04275
1501.0,0.0434
1502.0,0.0363
1503.0,0.02612
1504.0,0.01778
1505.0,0.0254
1506.0,0.04637
1507.0,0.04332
1508.0,0.04131
1509.0,0.02527
1510.0,0.04968
1511.0,0.04531
1512.0,0.04766
1513.0,0.03827
1514.0,0.03391
1515.0,0.04972
1516.0,0.04649
1517.0,0.04269
1518.0,0.04379
1519.0,0.04069
1520.0,0.04655
1521.0,0.05582
1522.0,0.04923
1523.0,0.05703
1524.0,0.05346
1525.0,0.04749
1526.0,0.04873
1527.0,0.04928
1528.0,0.05626
1529.0,0.05223
1530.0,0.04957
1531.0,0.05183
1532.0,0.05703
1533.0,0.0576
1534.0,0.0561
1535.0,0.05483
1536.0,0.05683
1537.0,0.05479
1538.0,0.05674
1539.0,0.05512
1540.0,0.05615
1541.0,0.0563
1542.0,0.05492
1543.0,0.05674
1544.0,0.05526
1545.0,0.05746
1546.0,0.05584
1547.0,0.05561
1548.0,0.05564
1549.0,0.05646
1550.0,0.05589
1551.0,0.05613
1552.0,0.05512
1553.0,0.05558
1554.0,0.05489
1555.0,0.05528
1556.0,0.05514
1557.0,0.05591
1558.0,0.05559
1559.0,0.05518
1560.0,0.05553
1561.0,0.05594
1562.0,0.05488
1563.0,0.05459
1564.0,0.05475
1565.0,0.05518
1566.0,0.05426
1567.0,0.05449
1568.0,0.05377
1569.0,0.05439
1570.0,0.05479
1571.0,0.05513
1572.0,0.05475
1573.0,0.05423
1574.0,0.05213
1575.0,0.05137
1576.0,0.05015
1577.0,0.04874
1578.0,0.05092
1579.0,0.05085
1580.0,0.05151
1581.0,0.05078
1582.0,0.04991
1583.0,0.04996
1584.0,0.05174
1585.0,0.0525
1586.0,0.05165
1587.0,0.05087
1588.0,0.0501
1589.0,0.04861
1590.0,0.04945
1591.0,0.05079
1592.0,0.05185
1593.0,0.05314
1594.0,0.05273
1595.0,0.0523
1596.0,0.05061
1597.0,0.05149
1598.0,0.0528
1599.0,0.05222
1600.0,0.05204
1601.0,0.05111
1602.0,0.05103
1603.0,0.05197
1604.0,0.05153
1605.0,0.05156
1606.0,0.05095
1607.0,0.05142
1608.0,0.05102
1609.0,0.04993
1610.0,0.04888
1611.0,0.04966
1612.0,0.05042
1613.0,0.05022
1614.0,0.05038
1615.0,0.04932
1616.0,0.04851
1617.0,0.0492
1618.0,0.05034
1619.0,0.04899
1620.0,0.04841
1621.0,0.04883
1622.0,0.04959
1623.0,0.05037
1624.0,0.04954
1625.0,0.04937
1626.0,0.04939
1627.0,0.0499
1628.0,0.04954
1629.0,0.04932
1630.0,0.0489
1631.0,0.04815
1632.0,0.0483
1633.0,0.04584
1634.0,0.04809
1635.0,0.04606
1636.0,0.04656
1637.0,0.04647
1638.0,0.0415
1639.0,0.04537
1640.0,0.04066
1641.0,0.04474
1642.0,0.04621
1643.0,0.03984
1644.0,0.0464
1645.0,0.04281
1646.0,0.03979
1647.0,0.04703
1648.0,0.03983
1649.0,0.04505
1650.0,0.04569
1651.0,0.03802
1652.0,0.04454
1653.0,0.04556
1654.0,0.03991
1655.0,0.04556
1656.0,0.04347
1657.0,0.04441
1658.0,0.0461
1659.0,0.04547
1660.0,0.04591
1661.0,0.04542
1662.0,0.043
1663.0,0.04576
1664.0,0.04495
1665.0,0.03943
1666.0,0.02395
1667.0,0.03907
1668.0,0.04343
1669.0,0.04351
1670.0,0.04504
1671.0,0.04312
1672.0,0.04316
1673.0,0.04445
1674.0,0.0422
1675.0,0.04187
1676.0,0.04267
1677.0,0.04205
1678.0,0.03964
1679.0,0.04276
1680.0,0.04071
1681.0,0.03814
1682.0,0.04198
1683.0,0.04288
1684.0,0.03544
1685.0,0.04336
1686.0,0.04317
1687.0,0.03951
1688.0,0.04263
1689.0,0.04223
1690.0,0.04155
1691.0,0.03379
1692.0,0.04092
1693.0,0.04343
1694.0,0.03983
1695.0,0.04256
1696.0,0.04289
1697.0,0.02946
1698.0,0.04198
1699.0,0.04145
1700.0,0.0393
1702.0,0.04105
1705.0,0.03845
1710.0,0.03572
1715.0,0.03619
1720.0,0.03626
1725.0,0.03176
1730.0,0.03185
1735.0,0.02971
1740.0,0.02965
1745.0,0.02742
1750.0,0.02954
1755.0,0.02607
1760.0,0.02774
1765.0,0.02023
1770.0,0.02149
1775.0,0.01487
1780.0,0.01137
1785.0,0.006768
1790.0,0.008404
1795.0,0.001431
1800.0,0.001389
1805.0,8.608e-05
1810.0,0.00011
1815.0,2.395e-06
1820.0,2.866e-07
1825.0,3.933e-07
1830.0,6.647e-10
1835.0,1.059e-09
1840.0,5.856e-12
1845.0,6.259e-10
1850.0,2.825e-10
1855.0,2.701e-11
1860.0,1.583e-09
1865.0,2.167e-09
1870.0,1.18e-14
1875.0,2.132e-14
1880.0,1.193e-08
1885.0,6.236e-09
1890.0,3.383e-08
1895.0,2.069e-08
1900.0,8.239e-11
1905.0,5.619e-11
1910.0,2.732e-09
1915.0,2.8e-09
1920.0,7.506e-08
1925.0,2.492e-07
1930.0,2.069e-07
1935.0,6.552e-06
1940.0,2.068e-05
1945.0,0.0001489
1950.0,0.0007399
1955.0,0.0003581
1960.0,0.001708
1965.0,0.00422
1970.0,0.00792
1975.0,0.009683
1980.0,0.01033
1985.0,0.01204
1990.0,0.01259
1995.0,0.01414
2000.0,0.01584
2005.0,0.01157
2010.0,0.02211
2015.0,0.01423
2020.0,0.01633
2025.0,0.01973
2030.0,0.01675
2035.0,0.02063
2040.0,0.01851
2045.0,0.01953
2050.0,0.02087
2055.0,0.01914
2060.0,0.01816
2065.0,0.01902
2070.0,0.01859
2075.0,0.01998
2080.0,0.01942
2085.0,0.01931
2090.0,0.01984
2095.0,0.01904
2100.0,0.0167
2105.0,0.01925
2110.0,0.01779
2115.0,0.01897
2120.0,0.01697
2125.0,0.01766
2130.0,0.01834
2135.0,0.01861
2140.0,0.01895
2145.0,0.01872
2150.0,0.01637
2155.0,0.01644
2160.0,0.01653
2165.0,0.01484
2170.0,0.0163
2175.0,0.01519
2180.0,0.01626
2185.0,0.0135
2190.0,0.01542
2195.0,0.01513
2200.0,0.01138
2205.0,0.01338
2210.0,0.01601
2215.0,0.01459
2220.0,0.01524
2225.0,0.01454
2230.0,0.01469
2235.0,0.01405
2240.0,0.01387
2245.0,0.01265
2250.0,0.01365
2255.0,0.01161
2260.0,0.01127
2265.0,0.01226
2270.0,0.01052
2275.0,0.01022
2280.0,0.01188
2285.0,0.01008
2290.0,0.01019
2295.0,0.009821
2300.0,0.008526
2305.0,0.008782
2310.0,0.01153
2315.0,0.008744
2320.0,0.006551
2325.0,0.009284
2330.0,0.008748
2335.0,0.009412
2340.0,0.005436
2345.0,0.006806
2350.0,0.00459
2355.0,0.005939
2360.0,0.006901
2365.0,0.007323
2370.0,0.00207
2375.0,0.005322
2380.0,0.005282
2385.0,0.002854
2390.0,0.003972
2395.0,0.004637
2400.0,0.00548
2405.0,0.003647
2410.0,0.003623
2415.0,0.002124
2420.0,0.002213
2425.0,0.003127
2430.0,0.005301
2435.0,0.0007507
2440.0,0.005407
2445.0,0.001342
2450.0,0.0005836
2455.0,0.002019
2460.0,0.002867
2465.0,0.001429
2470.0,0.0005516
2475.0,0.0005263
2480.0,0.0001724
2485.0,3.944e-05
2490.0,9.26e-06
2495.0,8.437e-06
2500.0,6.754e-05
2505.0,1.154e-05
2510.0,1.929e-05
2515.0,1.484e-06
2520.0,3.315e-08
2525.0,8.859e-09
2530.0,1.666e-11
2535.0,3.685e-12
2540.0,8.743e-12
2545.0,6.78e-16
2550.0,2.749e-18
2555.0,1.319e-14
2560.0,3.96e-16
2565.0,8.865e-20
2570.0,2.64e-24
2575.0,1.6700000000000002e-34
2580.0,1.741e-28
2585.0,3.639e-42
2590.0,2.271e-38
2595.0,4.418e-40
2600.0,3.637e-35
2605.0,4.0190000000000003e-42
2610.0,1.3839999999999998e-41
2615.0,1.4009999999999999e-45
2620.0,1.219e-35
2625.0,2.233e-35
2630.0,0.0
2635.0,1.163e-21
2640.0,2.517e-22
2645.0,1.097e-24
2650.0,1.0930000000000001e-25
2655.0,1.314e-34
2660.0,1.106e-31
2665.0,9.808999999999999e-45
2670.0,0.0
2675.0,5.325e-44
2680.0,2.243e-30
2685.0,2.1430000000000003e-31
2690.0,8.018e-31
2695.0,3.1449999999999995e-33
2700.0,9.161999999999999e-29
2705.0,2.5980000000000003e-26
2710.0,2.069e-31
2715.0,2.613e-29
2720.0,0.0
2725.0,5.85e-27
2730.0,1.705e-24
2735.0,1.9450000000000002e-26
2740.0,3.5130000000000003e-32
2745.0,4.53e-27
2750.0,2.539e-26
2755.0,4.085e-28
2760.0,6.12e-23
2765.0,2.872e-29
2770.0,1.4110000000000002e-26
2775.0,1.742e-23
2780.0,8.112e-21
2785.0,3.0460000000000005e-20
2790.0,6.945e-18
2795.0,1.528e-18
2800.0,4.878e-15
2805.0,9.119e-17
2810.0,3.657e-13
2815.0,1.091e-13
2820.0,1.333e-15
2825.0,1.17e-11
2830.0,2.573e-10
2835.0,3.501e-15
2840.0,7.536e-12
2845.0,3.269e-09
2850.0,4.494e-11
2855.0,2.593e-11
2860.0,1.232e-09
2865.0,1.25e-08
2870.0,1.822e-10
2875.0,8.437e-08
2880.0,2.416e-07
2885.0,9.152e-08
2890.0,2.035e-07
2895.0,1.53e-05
2900.0,1.39e-06
2905.0,5.602e-08
2910.0,2.087e-05
2915.0,4.52e-06
2920.0,2.038e-05
2925.0,8.172e-06
2930.0,0.0001188
2935.0,0.0001288
2940.0,1.459e-05
2945.0,4.237e-06
2950.0,7.974e-05
2955.0,4.067e-05
2960.0,0.0001123
2965.0,0.0002884
2970.0,1.084e-06
2975.0,8.512e-06
2980.0,1.29e-05
2985.0,0.0002751
2990.0,0.000705
2995.0,8.422e-05
3000.0,0.0003142
3005.0,5.408e-05
3010.0,0.0003122
3015.0,0.0001669
3020.0,6.551e-07
3025.0,0.0003097
3030.0,0.0002168
3035.0,3.438e-05
3040.0,3.11e-05
3045.0,7.241e-05
3050.0,9.233e-06
3055.0,7.441e-07
3060.0,0.0002467
3065.0,4.811e-05
3070.0,1.338e-05
3075.0,0.0002125
3080.0,8.396e-05
3085.0,1.395e-05
3090.0,2.432e-05
3095.0,2.052e-06
3100.0,0.0001223
3105.0,9.958e-06
3110.0,1.415e-06
3115.0,2.015e-05
3120.0,0.0005454
3125.0,0.0001152
3130.0,0.0003026
3135.0,0.0007591
3140.0,8.397e-05
3145.0,8.989e-05
3150.0,0.0003277
3155.0,0.0002774
3160.0,0.0005641
3165.0,0.001415
3170.0,0.001272
3175.0,0.0005604
3180.0,0.0009254
3185.0,0.0002754
3190.0,0.0001608
3195.0,1.987e-05
3200.0,4.103e-07
3205.0,1.13e-07
3210.0,6.328e-08
3215.0,1.131e-06
3220.0,5.499e-06
3225.0,5.835e-07
3230.0,6.621e-07
3235.0,0.0002863
3240.0,3.942e-05
3245.0,8.467e-06
3250.0,3.926e-05
3255.0,0.0005641
3260.0,8.602e-06
3265.0,2.818e-05
3270.0,4.473e-06
3275.0,0.0001958
3280.0,4.532e-05
3285.0,0.0008776
3290.0,0.0004248
3295.0,1.875e-05
3300.0,2.446e-05
3305.0,8.861e-05
3310.0,6.393e-05
3315.0,1.7e-10
3320.0,5.879e-09
3325.0,3.658e-05
3330.0,0.0002788
3335.0,0.0005546
3340.0,0.0001689
3345.0,8.692e-05
3350.0,0.0006173
3355.0,9.488e-05
3360.0,0.0002549
3365.0,0.0005681
3370.0,7.932e-05
3375.0,0.0008108
3380.0,0.0001505
3385.0,0.0005967
3390.0,0.0007893
3395.0,0.000912
3400.0,0.001806
3405.0,0.0001156
3410.0,0.0006471
3415.0,0.0003721
3420.0,0.002126
3425.0,0.0008887
3430.0,0.0005737
3435.0,0.001727
3440.0,0.0004872
3445.0,0.001489
3450.0,0.001336
3455.0,0.0006772
3460.0,0.002024
3465.0,0.0009026
3470.0,0.001987
3475.0,0.00135
3480.0,0.001441
3485.0,0.001861
3490.0,0.00118
3495.0,0.001961
3500.0,0.001841
3505.0,0.001813
3510.0,0.001901
3515.0,0.001713
3520.0,0.002035
3525.0,0.001786
3530.0,0.00164
3535.0,0.001023
3540.0,0.0009154
3545.0,0.001033
3550.0,0.001505
3555.0,0.001039
3560.0,0.001635
3565.0,0.001588
3570.0,0.0009379
3575.0,0.0008787
3580.0,0.001469
3585.0,0.001086
3590.0,0.001254
3595.0,0.00145
3600.0,0.00165
3605.0,0.001526
3610.0,0.001287
3615.0,0.001445
3620.0,0.002164
3625.0,0.001531
3630.0,0.001555
3635.0,0.001648
3640.0,0.002156
3645.0,0.001671
3650.0,0.001585
3655.0,0.001936
3660.0,0.00195
3665.0,0.001575
3670.0,0.000996
3675.0,0.0003107
3680.0,0.0009851
3685.0,0.00134
3690.0,0.001418
3695.0,0.001688
3700.0,0.002074
3705.0,0.001995
3710.0,0.001443
3715.0,0.001468
3720.0,0.001901
3725.0,0.002009
3730.0,0.001504
3735.0,0.00125
3740.0,0.001377
3745.0,0.0019
3750.0,0.001579
3755.0,0.001483
3760.0,0.001352
3765.0,0.001316
3770.0,0.001561
3775.0,0.001533
3780.0,0.00172
3785.0,0.001387
3790.0,0.001107
3795.0,0.001501
3800.0,0.001891
3805.0,0.001663
3810.0,0.001231
3815.0,0.001138
3820.0,0.001841
3825.0,0.001761
3830.0,0.001842
3835.0,0.001061
3840.0,0.001562
3845.0,0.00146
3850.0,0.001483
3855.0,0.001349
3860.0,0.001102
3865.0,0.001129
3870.0,0.0008561
3875.0,0.0006494
3880.0,0.0005874
3885.0,0.0006622
3890.0,0.0006946
3895.0,0.0009229
3900.0,0.001122
3905.0,0.001122
3910.0,0.000812
3915.0,0.0007616
3920.0,0.0007681
3925.0,0.000739
3930.0,0.0008218
3935.0,0.0009413
3940.0,0.0009841
3945.0,0.001051
3950.0,0.001118
3955.0,0.001166
3960.0,0.001206
3965.0,0.001241
3970.0,0.001212
3975.0,0.001133
3980.0,0.001098
3985.0,0.001127
3990.0,0.001096
3995.0,0.00104
4000.0,0.0009702
