interpolation:linear
wavelength,value
280.0,1.673e-23
280.5,5.843999999999999e-22
281.0,3.191e-21
281.5,1.075e-19
282.0,8.852e-19
282.5,3.432e-18
283.0,1.455e-17
283.5,2.243e-17
284.0,3.381e-16
284.5,9.754e-16
285.0,4.678e-16
285.5,2.589e-15
286.0,1.07e-14
286.5,5.059e-14
287.0,1.492e-13
287.5,5.95e-13
288.0,9.652e-12
288.5,1.844e-11
289.0,3.975e-11
289.5,1.057e-10
290.0,2.738e-10
290.5,5.33e-10
291.0,1.098e-09
291.5,3.041e-09
292.0,5.879e-09
292.5,7.779e-09
293.0,1.567e-08
293.5,3.568e-08
294.0,5.31e-08
294.5,1.063e-08
295.0,1.779e-08
295.5,2.815e-08
296.0,4.836e-08
296.5,6.049e-08
297.0,7.479e-08
297.5,1.758e-07
298.0,2.477e-07
298.5,2.288e-07
299.0,4.642e-07
299.5,6.669e-07
300.0,6.768e-07
300.5,9.032e-07
301.0,1.433e-06
301.5,2.03e-06
302.0,1.636e-06
302.5,1.798e-06
303.0,3.305e-06
303.5,4.206e-06
304.0,3.949e-06
304.5,5.957e-06
305.0,9.421e-06
305.5,1.125e-05
306.0,1.11e-05
306.5,1.431e-05
307.0,2.326e-05
307.5,3.431e-05
308.0,3.692e-05
308.5,4.623e-05
309.0,4.329e-05
309.5,4.649e-05
310.0,4.639e-05
310.5,7.523e-05
311.0,9.513e-05
311.5,9.233e-05
312.0,9.639e-05
312.5,0.0001224
313.0,0.0001364
313.5,0.0001292
314.0,0.0001724
314.5,0.0001825
315.0,0.0002482
315.5,0.0001895
316.0,0.0001931
316.5,0.0003187
317.0,0.0003947
317.5,0.0003947
318.0,0.0003392
318.5,0.0005107
319.0,0.0006706
319.5,0.0004652
320.0,0.0005489
320.5,0.0008417
321.0,0.0009087
321.5,0.0008886
322.0,0.00077
322.5,0.0006769
323.0,0.0007709
323.5,0.001936
324.0,0.002353
324.5,0.002154
325.0,0.000994
325.5,0.001432
326.0,0.003343
326.5,0.003804
327.0,0.003617
327.5,0.003289
328.0,0.002455
328.5,0.00319
329.0,0.004574
329.5,0.005522
330.0,0.0053
330.5,0.003666
331.0,0.003578
331.5,0.003992
332.0,0.005107
332.5,0.005442
333.0,0.005199
333.5,0.004159
334.0,0.004172
334.5,0.005541
335.0,0.005633
335.5,0.007031
336.0,0.004865
336.5,0.005129
337.0,0.003971
337.5,0.004833
338.0,0.005284
338.5,0.006615
339.0,0.0066
339.5,0.006317
340.0,0.006864
340.5,0.006257
341.0,0.006555
341.5,0.006107
342.0,0.007329
342.5,0.006886
343.0,0.007506
343.5,0.007025
344.0,0.004829
344.5,0.005185
345.0,0.006983
345.5,0.007182
346.0,0.006134
346.5,0.006968
347.0,0.007425
347.5,0.005988
348.0,0.006893
348.5,0.006929
349.0,0.006445
349.5,0.006375
350.0,0.007895
350.5,0.008327
351.0,0.007406
351.5,0.007114
352.0,0.0077
352.5,0.006046
353.0,0.007645
353.5,0.008197
354.0,0.008527
354.5,0.008649
355.0,0.008607
355.5,0.007787
356.0,0.00816
356.5,0.00697
357.0,0.005759
357.5,0.007056
358.0,0.005598
358.5,0.004787
359.0,0.006691
359.5,0.0085
360.0,0.009022
360.5,0.007224
361.0,0.006595
361.5,0.007602
362.0,0.00658
362.5,0.009111
363.0,0.008186
363.5,0.007541
364.0,0.009226
364.5,0.007886
365.0,0.008032
365.5,0.01008
366.0,0.01069
366.5,0.01005
367.0,0.009792
367.5,0.01016
368.0,0.008896
368.5,0.008975
369.0,0.009696
369.5,0.01034
370.0,0.01103
370.5,0.008562
371.0,0.009152
371.5,0.01145
372.0,0.007604
372.5,0.00912
373.0,0.009279
373.5,0.006038
374.0,0.008776
374.5,0.007269
375.0,0.007069
375.5,0.01056
376.0,0.008754
376.5,0.009074
377.0,0.00961
377.5,0.01125
378.0,0.01219
378.5,0.01153
379.0,0.009516
379.5,0.008694
380.0,0.009041
380.5,0.01095
381.0,0.01098
381.5,0.008705
382.0,0.007733
382.5,0.006594
383.0,0.006106
383.5,0.005883
384.0,0.006491
384.5,0.009551
385.0,0.009474
385.5,0.008825
386.0,0.00756
386.5,0.009933
387.0,0.008256
387.5,0.009275
388.0,0.008565
388.5,0.008469
389.0,0.009144
389.5,0.01108
390.0,0.01112
390.5,0.01024
391.0,0.01205
391.5,0.0123
392.0,0.01036
392.5,0.009276
393.0,0.005163
393.5,0.003754
394.0,0.00764
394.5,0.009716
395.0,0.01186
395.5,0.01205
396.0,0.01045
396.5,0.006111
397.0,0.004587
397.5,0.009332
398.0,0.01307
398.5,0.01352
399.0,0.01464
399.5,0.01459
400.0,0.01516
401.0,0.01497
402.0,0.0158
403.0,0.01501
404.0,0.01479
405.0,0.01479
406.0,0.01455
407.0,0.01432
408.0,0.01487
409.0,0.01591
410.0,0.01391
411.0,0.01507
412.0,0.01619
413.0,0.0158
414.0,0.016
415.0,0.01604
416.0,0.01631
417.0,0.01591
418.0,0.01562
419.0,0.01583
420.0,0.01577
421.0,0.01649
422.0,0.01566
423.0,0.01529
424.0,0.01615
425.0,0.01611
426.0,0.0157
427.0,0.01542
428.0,0.01503
429.0,0.01425
430.0,0.01247
431.0,0.01236
432.0,0.01594
433.0,0.01602
434.0,0.01488
435.0,0.01555
436.0,0.01752
437.0,0.01728
438.0,0.01571
439.0,0.01622
440.0,0.0167
441.0,0.01727
442.0,0.0185
443.0,0.01801
444.0,0.01843
445.0,0.01806
446.0,0.01727
447.0,0.01869
448.0,0.01897
449.0,0.01901
450.0,0.01952
451.0,0.02023
452.0,0.01951
453.0,0.01836
454.0,0.01918
455.0,0.01926
456.0,0.01969
457.0,0.01996
458.0,0.0192
459.0,0.01903
460.0,0.019
461.0,0.0194
462.0,0.01955
463.0,0.01946
464.0,0.01922
465.0,0.01904
466.0,0.01926
467.0,0.01889
468.0,0.01907
469.0,0.01912
470.0,0.01848
471.0,0.01846
472.0,0.01946
473.0,0.01922
474.0,0.01922
475.0,0.01932
476.0,0.01864
477.0,0.01858
478.0,0.019
479.0,0.01879
480.0,0.01873
481.0,0.01901
482.0,0.01909
483.0,0.0189
484.0,0.01858
485.0,0.01778
486.0,0.01562
487.0,0.01641
488.0,0.018
489.0,0.01803
490.0,0.01893
491.0,0.01858
492.0,0.01754
493.0,0.01812
494.0,0.01831
495.0,0.01846
496.0,0.01855
497.0,0.01877
498.0,0.0178
499.0,0.0179
500.0,0.01726
501.0,0.01682
502.0,0.01642
503.0,0.01694
504.0,0.01634
505.0,0.01697
506.0,0.01753
507.0,0.01671
508.0,0.01626
509.0,0.0168
510.0,0.01679
511.0,0.01729
512.0,0.0175
513.0,0.01655
514.0,0.01641
515.0,0.01622
516.0,0.01615
517.0,0.01434
518.0,0.01506
519.0,0.01578
520.0,0.01631
521.0,0.01642
522.0,0.01637
523.0,0.01603
524.0,0.01649
525.0,0.01656
526.0,0.01574
527.0,0.01471
528.0,0.01547
529.0,0.01621
530.0,0.0159
531.0,0.01607
532.0,0.01548
533.0,0.01501
534.0,0.01547
535.0,0.01586
536.0,0.01605
537.0,0.01545
538.0,0.01573
539.0,0.01558
540.0,0.01488
541.0,0.01484
542.0,0.01526
543.0,0.01514
544.0,0.0153
545.0,0.01524
546.0,0.01524
547.0,0.01528
548.0,0.01514
549.0,0.0152
550.0,0.01537
551.0,0.0152
552.0,0.0153
553.0,0.01501
554.0,0.01535
555.0,0.01535
556.0,0.01511
557.0,0.01459
558.0,0.0144
559.0,0.01404
560.0,0.01413
561.0,0.01422
562.0,0.01402
563.0,0.0143
564.0,0.01382
565.0,0.01363
566.0,0.01336
567.0,0.0135
568.0,0.01316
569.0,0.01266
570.0,0.0126
571.0,0.01251
572.0,0.01264
573.0,0.01271
574.0,0.01259
575.0,0.01229
576.0,0.01216
577.0,0.01231
578.0,0.01223
579.0,0.01246
580.0,0.01297
581.0,0.01328
582.0,0.01372
583.0,0.01392
584.0,0.01415
585.0,0.01389
586.0,0.01364
587.0,0.01384
588.0,0.01329
589.0,0.01097
590.0,0.01139
591.0,0.01256
592.0,0.01206
593.0,0.0126
594.0,0.01236
595.0,0.01183
596.0,0.01301
597.0,0.01246
598.0,0.01263
599.0,0.01279
600.0,0.01284
601.0,0.01284
602.0,0.01281
603.0,0.01314
604.0,0.01345
605.0,0.01348
606.0,0.0135
607.0,0.01372
608.0,0.01367
609.0,0.01381
610.0,0.01382
611.0,0.01401
612.0,0.01407
613.0,0.014
614.0,0.0139
615.0,0.01429
616.0,0.0139
617.0,0.01393
618.0,0.01453
619.0,0.01443
620.0,0.01455
621.0,0.01459
622.0,0.01443
623.0,0.01421
624.0,0.01393
625.0,0.01386
626.0,0.01399
627.0,0.01392
628.0,0.01057
629.0,0.01253
630.0,0.01216
631.0,0.01326
632.0,0.0134
633.0,0.01418
634.0,0.01442
635.0,0.01489
636.0,0.01489
637.0,0.01536
638.0,0.01579
639.0,0.01578
640.0,0.01586
641.0,0.01601
642.0,0.01615
643.0,0.01647
644.0,0.01658
645.0,0.01644
646.0,0.01585
647.0,0.01456
648.0,0.01473
649.0,0.01418
650.0,0.01558
651.0,0.01658
652.0,0.01475
653.0,0.01657
654.0,0.01663
655.0,0.01513
656.0,0.01382
657.0,0.01451
658.0,0.01654
659.0,0.01714
660.0,0.01726
661.0,0.01776
662.0,0.01813
663.0,0.01788
664.0,0.01813
665.0,0.01822
666.0,0.01837
667.0,0.01847
668.0,0.01867
669.0,0.01903
670.0,0.01906
671.0,0.01916
672.0,0.0191
673.0,0.01949
674.0,0.01951
675.0,0.01943
676.0,0.01965
677.0,0.01955
678.0,0.01969
679.0,0.01946
680.0,0.01967
681.0,0.01955
682.0,0.01955
683.0,0.0195
684.0,0.01936
685.0,0.0197
686.0,0.01938
687.0,0.005775
688.0,0.00707
689.0,0.007115
690.0,0.007859
691.0,0.009254
692.0,0.01114
693.0,0.01147
694.0,0.01226
695.0,0.01461
696.0,0.01478
697.0,0.01902
698.0,0.01788
699.0,0.01544
700.0,0.01532
701.0,0.01432
702.0,0.01479
703.0,0.01573
704.0,0.01733
705.0,0.01716
706.0,0.01763
707.0,0.01778
708.0,0.01828
709.0,0.0191
710.0,0.01803
711.0,0.01852
712.0,0.01925
713.0,0.01813
714.0,0.01879
715.0,0.01736
716.0,0.01664
717.0,0.009362
718.0,0.009034
719.0,0.008577
720.0,0.008117
721.0,0.0109
722.0,0.01399
723.0,0.01255
724.0,0.01037
725.0,0.009661
726.0,0.009307
727.0,0.01169
728.0,0.008772
729.0,0.01053
730.0,0.01035
731.0,0.00972
732.0,0.01216
733.0,0.01453
734.0,0.01594
735.0,0.01534
736.0,0.0144
737.0,0.01498
738.0,0.01774
739.0,0.01738
740.0,0.01869
741.0,0.01891
742.0,0.01953
743.0,0.02003
744.0,0.02018
745.0,0.02063
746.0,0.02075
747.0,0.02092
748.0,0.02093
749.0,0.02075
750.0,0.02076
751.0,0.02056
752.0,0.02071
753.0,0.02087
754.0,0.02089
755.0,0.02072
756.0,0.0208
757.0,0.02081
758.0,0.02044
759.0,0.01741
760.0,0.0011
761.0,0.0005871
762.0,0.003227
763.0,0.001642
764.0,0.002429
765.0,0.003194
766.0,0.003924
767.0,0.005568
768.0,0.01021
769.0,0.0126
770.0,0.0167
771.0,0.01901
772.0,0.01983
773.0,0.02019
774.0,0.02028
775.0,0.02027
776.0,0.02061
777.0,0.02038
778.0,0.02023
779.0,0.02027
780.0,0.0202
781.0,0.02026
782.0,0.02043
783.0,0.02012
784.0,0.0203
785.0,0.02004
786.0,0.01999
787.0,0.01803
788.0,0.01762
789.0,0.01726
790.0,0.01524
791.0,0.01672
792.0,0.01697
793.0,0.01654
794.0,0.01898
795.0,0.01872
796.0,0.0153
797.0,0.01606
798.0,0.01869
799.0,0.01793
800.0,0.01636
801.0,0.0158
802.0,0.01592
803.0,0.01493
804.0,0.01569
805.0,0.01649
806.0,0.01865
807.0,0.01797
808.0,0.01783
809.0,0.01608
810.0,0.01589
811.0,0.01355
812.0,0.01241
813.0,0.01172
814.0,0.00817
815.0,0.008136
816.0,0.008573
817.0,0.008528
818.0,0.008258
819.0,0.009234
820.0,0.01012
821.0,0.01306
822.0,0.0115
823.0,0.004294
824.0,0.01024
825.0,0.01462
826.0,0.0108
827.0,0.01329
828.0,0.007876
829.0,0.01221
830.0,0.01189
831.0,0.01157
832.0,0.01089
833.0,0.01193
834.0,0.01114
835.0,0.01513
836.0,0.01267
837.0,0.01495
838.0,0.01335
839.0,0.01554
840.0,0.01646
841.0,0.01546
842.0,0.0163
843.0,0.01781
844.0,0.01693
845.0,0.01811
846.0,0.0186
847.0,0.01853
848.0,0.01786
849.0,0.01739
850.0,0.01658
851.0,0.01683
852.0,0.0173
853.0,0.01704
854.0,0.01447
855.0,0.01623
856.0,0.01766
857.0,0.01841
858.0,0.01814
859.0,0.01857
860.0,0.01877
861.0,0.01862
862.0,0.01901
863.0,0.01943
864.0,0.01854
865.0,0.01844
866.0,0.01658
867.0,0.01732
868.0,0.01888
869.0,0.01853
870.0,0.01909
871.0,0.0188
872.0,0.0188
873.0,0.01878
874.0,0.01857
875.0,0.01813
876.0,0.01832
877.0,0.0185
878.0,0.01867
879.0,0.01839
880.0,0.01794
881.0,0.01743
882.0,0.01755
883.0,0.01795
884.0,0.01772
885.0,0.01765
886.0,0.01582
887.0,0.01702
888.0,0.01668
889.0,0.01789
890.0,0.01657
891.0,0.01735
892.0,0.01475
893.0,0.01374
894.0,0.0109
895.0,0.008397
896.0,0.00768
897.0,0.006124
898.0,0.006718
899.0,0.003682
900.0,0.006496
901.0,0.003932
902.0,0.004402
903.0,0.005165
904.0,0.01009
905.0,0.008969
906.0,0.008158
907.0,0.004678
908.0,0.005658
909.0,0.005622
910.0,0.003573
911.0,0.005097
912.0,0.006984
913.0,0.003727
914.0,0.005293
915.0,0.003647
916.0,0.004103
917.0,0.005049
918.0,0.00371
919.0,0.005598
920.0,0.007927
921.0,0.007525
922.0,0.005533
923.0,0.007513
924.0,0.005084
925.0,0.004772
926.0,0.004815
927.0,0.005858
928.0,0.002205
929.0,0.001728
930.0,0.001146
931.0,0.001063
932.0,0.0007441
933.0,0.0005973
934.0,0.0003236
935.0,0.0006069
936.0,0.0003758
937.0,0.0003791
938.0,0.0004646
939.0,0.0009999
940.0,0.001255
941.0,0.0008857
942.0,0.001031
943.0,0.0006607
944.0,0.0007034
945.0,0.000902
946.0,0.0004455
947.0,0.0008936
948.0,0.0006576
949.0,0.001227
950.0,0.0003224
951.0,0.00121
952.0,0.000648
953.0,0.0008292
954.0,0.001022
955.0,0.0009659
956.0,0.0009203
957.0,0.0006458
958.0,0.001429
959.0,0.0009865
960.0,0.001178
961.0,0.001485
962.0,0.001378
963.0,0.002049
964.0,0.001755
965.0,0.001778
966.0,0.002219
967.0,0.002374
968.0,0.007499
969.0,0.005021
970.0,0.005929
971.0,0.007184
972.0,0.00714
973.0,0.003799
974.0,0.003569
975.0,0.004617
976.0,0.003864
977.0,0.007001
978.0,0.004579
979.0,0.00561
980.0,0.005448
981.0,0.007739
982.0,0.006713
983.0,0.005995
984.0,0.01018
985.0,0.00628
986.0,0.01287
987.0,0.009971
988.0,0.01079
989.0,0.01386
990.0,0.009773
991.0,0.01379
992.0,0.01411
993.0,0.01153
994.0,0.01441
995.0,0.01483
996.0,0.01437
997.0,0.01449
998.0,0.01426
999.0,0.01436
1000.0,0.01395
1001.0,0.01456
1002.0,0.01169
1003.0,0.01428
1004.0,0.01302
1005.0,0.01337
1006.0,0.01386
1007.0,0.01408
1008.0,0.01372
1009.0,0.0132
1010.0,0.0131
1011.0,0.01392
1012.0,0.01368
1013.0,0.01419
1014.0,0.01409
1015.0,0.014
1016.0,0.01381
1017.0,0.01367
1018.0,0.014
1019.0,0.01265
1020.0,0.01383
1021.0,0.01395
1022.0,0.01352
1023.0,0.01371
1024.0,0.01259
1025.0,0.01389
1026.0,0.01345
1027.0,0.01373
1028.0,0.01354
1029.0,0.01316
1030.0,0.01358
1031.0,0.01353
1032.0,0.01346
1033.0,0.01334
1034.0,0.01331
1035.0,0.01337
1036.0,0.01325
1037.0,0.01312
1038.0,0.01312
1039.0,0.01302
1040.0,0.01294
1041.0,0.01287
1042.0,0.01277
1043.0,0.01267
1044.0,0.01263
1045.0,0.01238
1046.0,0.01216
1047.0,0.01217
1048.0,0.01214
1049.0,0.01199
1050.0,0.01183
1051.0,0.01168
1052.0,0.01151
1053.0,0.01126
1054.0,0.01112
1055.0,0.01094
1056.0,0.01069
1057.0,0.01051
1058.0,0.0101
1059.0,0.009916
1060.0,0.009824
1061.0,0.009706
1062.0,0.009656
1063.0,0.009356
1064.0,0.009526
1065.0,0.009056
1066.0,0.009174
1067.0,0.009252
1068.0,0.008801
1069.0,0.008798
1070.0,0.009165
1071.0,0.009764
1072.0,0.009286
1073.0,0.009198
1074.0,0.01023
1075.0,0.008006
1076.0,0.01028
1077.0,0.009168
1078.0,0.008249
1079.0,0.01057
1080.0,0.008828
1081.0,0.007656
1082.0,0.009533
1083.0,0.009862
1084.0,0.007643
1085.0,0.009155
1086.0,0.006834
1087.0,0.007612
1088.0,0.009713
1089.0,0.007452
1090.0,0.006971
1091.0,0.008885
1092.0,0.009192
1093.0,0.00488
1094.0,0.007808
1095.0,0.004663
1096.0,0.00395
1097.0,0.0092
1098.0,0.003922
1099.0,0.003783
1100.0,0.00278
1101.0,0.003296
1102.0,0.002667
1103.0,0.002078
1104.0,0.002511
1105.0,0.002939
1106.0,0.001037
1107.0,0.002805
1108.0,0.001252
1109.0,0.00134
1110.0,0.001819
1111.0,0.0006021
1112.0,0.001525
1113.0,0.0004263
1114.0,0.0004666
1115.0,0.0003637
1116.0,0.0002586
1117.0,9.263e-05
1118.0,0.0002809
1119.0,0.0001366
1120.0,0.0001712
1121.0,0.0002272
1122.0,9.413e-05
1123.0,0.0001532
1124.0,0.0001288
1125.0,0.0001679
1126.0,5.706e-05
1127.0,0.0001882
1128.0,0.0001109
1129.0,0.0001175
1130.0,7.655e-05
1131.0,0.0003561
1132.0,0.0002777
1133.0,0.0001734
1134.0,4.321e-05
1135.0,1.619e-05
1136.0,0.0001426
1137.0,0.000342
1138.0,0.0002397
1139.0,0.0003741
1140.0,0.000302
1141.0,0.000226
1142.0,0.0002605
1143.0,0.0003734
1144.0,0.0001269
1145.0,0.0001607
1146.0,0.0001727
1147.0,5.94e-05
1148.0,0.0003177
1149.0,0.0002492
1150.0,0.0001344
1151.0,0.0002283
1152.0,0.0002837
1153.0,0.0002831
1154.0,0.0001517
1155.0,0.0003841
1156.0,0.0003471
1157.0,0.0004758
1158.0,0.0004524
1159.0,0.000516
1160.0,0.0004964
1161.0,0.001081
1162.0,0.001324
1163.0,0.00255
1164.0,0.002096
1165.0,0.001183
1166.0,0.002052
1167.0,0.002205
1168.0,0.002216
1169.0,0.00262
1170.0,0.003658
1171.0,0.002958
1172.0,0.00468
1173.0,0.00319
1174.0,0.001277
1175.0,0.004008
1176.0,0.006821
1177.0,0.004778
1178.0,0.00228
1179.0,0.006407
1180.0,0.004833
1181.0,0.003617
1182.0,0.001172
1183.0,0.00391
1184.0,0.004102
1185.0,0.003039
1186.0,0.004906
1187.0,0.00346
1188.0,0.001162
1189.0,0.003559
1190.0,0.005251
1191.0,0.003391
1192.0,0.005549
1193.0,0.005589
1194.0,0.00522
1195.0,0.0037
1196.0,0.002937
1197.0,0.00532
1198.0,0.004992
1199.0,0.00207
1200.0,0.0044
1201.0,0.003205
1202.0,0.004669
1203.0,0.003337
1204.0,0.003994
1205.0,0.005877
1206.0,0.007228
1207.0,0.004072
1208.0,0.004685
1209.0,0.004873
1210.0,0.006308
1211.0,0.005212
1212.0,0.00312
1213.0,0.005957
1214.0,0.003711
1215.0,0.003337
1216.0,0.006588
1217.0,0.005816
1218.0,0.006492
1219.0,0.006061
1220.0,0.006434
1221.0,0.00717
1222.0,0.006546
1223.0,0.006263
1224.0,0.005603
1225.0,0.006435
1226.0,0.007431
1227.0,0.004873
1228.0,0.008265
1229.0,0.007254
1230.0,0.006876
1231.0,0.008681
1232.0,0.008616
1233.0,0.005806
1234.0,0.009301
1235.0,0.008687
1236.0,0.009199
1237.0,0.007982
1238.0,0.009172
1239.0,0.009071
1240.0,0.00926
1241.0,0.008577
1242.0,0.009066
1243.0,0.009076
1244.0,0.008817
1245.0,0.009052
1246.0,0.009047
1247.0,0.008715
1248.0,0.008387
1249.0,0.008708
1250.0,0.008369
1251.0,0.007727
1252.0,0.008444
1253.0,0.007147
1254.0,0.006427
1255.0,0.008165
1256.0,0.005882
1257.0,0.005482
1258.0,0.007035
1259.0,0.004283
1260.0,0.004575
1261.0,0.002427
1262.0,0.001733
1263.0,0.001733
1264.0,0.0008292
1265.0,0.001714
1266.0,0.001123
1267.0,0.001493
1268.0,0.0009282
1269.0,0.0001913
1270.0,0.001323
1271.0,0.002655
1272.0,0.002734
1273.0,0.002533
1274.0,0.002873
1275.0,0.003122
1276.0,0.003616
1277.0,0.004289
1278.0,0.005275
1279.0,0.00535
1280.0,0.005492
1281.0,0.005897
1282.0,0.00649
1283.0,0.00676
1284.0,0.007057
1285.0,0.007235
1286.0,0.007701
1287.0,0.007078
1288.0,0.007274
1289.0,0.004929
1290.0,0.007215
1291.0,0.007723
1292.0,0.004185
1293.0,0.007008
1294.0,0.006593
1295.0,0.00496
1296.0,0.003894
1297.0,0.003271
1298.0,0.004795
1299.0,0.006654
1300.0,0.002659
1301.0,0.002556
1302.0,0.004758
1303.0,0.003566
1304.0,0.001167
1305.0,0.004209
1306.0,0.003432
1307.0,0.001678
1308.0,0.002898
1309.0,0.003023
1310.0,0.0017
1311.0,0.003055
1312.0,0.002385
1313.0,0.001685
1314.0,0.0007923
1315.0,0.0007717
1316.0,0.002474
1317.0,0.002669
1318.0,0.003122
1319.0,0.001001
1320.0,0.0007277
1321.0,0.001396
1322.0,0.0008233
1323.0,0.0003004
1324.0,0.0009887
1325.0,0.001375
1326.0,0.0009438
1327.0,0.0007046
1328.0,0.0003003
1329.0,0.0001348
1330.0,0.0002027
1331.0,0.0001003
1332.0,9.84e-05
1333.0,0.0001424
1334.0,0.0001644
1335.0,0.0001992
1336.0,0.0001379
1337.0,0.0001277
1338.0,0.0001284
1339.0,0.0001283
1340.0,0.0001274
1341.0,0.0001116
1342.0,0.0001184
1343.0,7.726e-05
1344.0,4.615e-05
1345.0,6.628e-05
1346.0,3.27e-05
1347.0,3.313e-05
1348.0,2.136e-06
1349.0,7.662e-06
1350.0,7.942e-06
1351.0,1.92e-06
1352.0,5.165e-07
1353.0,2.629e-08
1354.0,9.036e-08
1355.0,7.276e-10
1356.0,1.273e-08
1357.0,1.935e-08
1358.0,8.544e-10
1359.0,1.076e-10
1360.0,3.891e-10
1361.0,4.352e-13
1362.0,1.191e-15
1363.0,5.232e-10
1364.0,2.16e-10
1365.0,4.158e-16
1366.0,2.268e-09
1367.0,9.258e-10
1368.0,3.211e-18
1369.0,7.963e-11
1370.0,3.922e-11
1371.0,2.223e-12
1372.0,5.023e-10
1373.0,1.012e-08
1374.0,4.694e-08
1375.0,8.514e-08
1376.0,7.636e-08
1377.0,3.488e-08
1378.0,3.411e-07
1379.0,1.458e-08
1380.0,2.095e-08
1381.0,5.457e-10
1382.0,4.405e-10
1383.0,6.586e-12
1384.0,8.636e-11
1385.0,4.13e-10
1386.0,3.885e-10
1387.0,4.699e-08
1388.0,9.243e-10
1389.0,1.587e-07
1390.0,1.362e-07
1391.0,9.058e-08
1392.0,5.872e-09
1393.0,3.111e-08
1394.0,1.603e-08
1395.0,1.175e-10
1396.0,5.679e-13
1397.0,1.225e-08
1398.0,3.622e-07
1399.0,2.292e-07
1400.0,2.429e-13
1401.0,1.008e-12
1402.0,6.349e-07
1403.0,7.953e-07
1404.0,2.416e-07
1405.0,5.567e-11
1406.0,6.246e-07
1407.0,5.505e-08
1408.0,5.082e-07
1409.0,1.694e-07
1410.0,1.356e-07
1411.0,6.841e-07
1412.0,9.23e-07
1413.0,9.607e-06
1414.0,1.059e-07
1415.0,5.059e-08
1416.0,1.588e-05
1417.0,4.689e-06
1418.0,5.31e-06
1419.0,8.172e-07
1420.0,3.227e-06
1421.0,3.482e-06
1422.0,2.041e-05
1423.0,3.916e-06
1424.0,7.351e-06
1425.0,1.074e-05
1426.0,1.229e-05
1427.0,2.286e-05
1428.0,1.6e-06
1429.0,1.684e-05
1430.0,2.905e-05
1431.0,3.194e-05
1432.0,1.244e-06
1433.0,2.004e-05
1434.0,1.008e-05
1435.0,9.77e-06
1436.0,1.925e-05
1437.0,1.471e-05
1438.0,6.074e-06
1439.0,2.616e-05
1440.0,1.953e-05
1441.0,1.46e-05
1442.0,1.618e-05
1443.0,2.064e-05
1444.0,2.874e-05
1445.0,2.208e-05
1446.0,9.794e-06
1447.0,1.544e-05
1448.0,5.47e-05
1449.0,4.7e-05
1450.0,1.138e-05
1451.0,4.48e-06
1452.0,2.766e-05
1453.0,3.646e-05
1454.0,6.444e-05
1455.0,2.953e-05
1456.0,3.937e-05
1457.0,5.372e-05
1458.0,6.605e-05
1459.0,7.715e-05
1460.0,3.908e-05
1461.0,3.978e-05
1462.0,5.936e-05
1463.0,1.859e-05
1464.0,7.133e-05
1465.0,4.266e-05
1466.0,2.794e-05
1467.0,1.429e-05
1468.0,3.307e-05
1469.0,4.104e-05
1470.0,1.971e-05
1471.0,6.99e-06
1472.0,1.873e-05
1473.0,2.913e-05
1474.0,4.377e-05
1475.0,8.604e-05
1476.0,2.904e-05
1477.0,2.894e-05
1478.0,2.712e-05
1479.0,5.328e-05
1480.0,2.479e-05
1481.0,4.995e-05
1482.0,2.43e-05
1483.0,6.64e-05
1484.0,6.924e-05
1485.0,5.585e-05
1486.0,5.292e-05
1487.0,2.345e-05
1488.0,4.433e-05
1489.0,0.0001015
1490.0,0.0001687
1491.0,0.0002062
1492.0,8.633e-05
1493.0,0.0001618
1494.0,0.0003927
1495.0,0.0002213
1496.0,0.000159
1497.0,0.0009131
1498.0,0.0005162
1499.0,0.0005139
1500.0,0.001784
1501.0,0.001608
1502.0,0.001477
1503.0,0.000586
1504.0,0.000114
1505.0,0.0005228
1506.0,0.002238
1507.0,0.00202
1508.0,0.002065
1509.0,0.0007576
1510.0,0.002745
1511.0,0.001873
1512.0,0.002888
1513.0,0.001291
1514.0,0.001126
1515.0,0.003281
1516.0,0.002851
1517.0,0.001815
1518.0,0.00244
1519.0,0.001649
1520.0,0.002452
1521.0,0.005011
1522.0,0.003222
1523.0,0.005227
1524.0,0.003893
1525.0,0.002624
1526.0,0.002745
1527.0,0.003365
1528.0,0.004718
1529.0,0.003994
1530.0,0.003125
1531.0,0.003733
1532.0,0.005359
1533.0,0.005712
1534.0,0.00577
1535.0,0.005157
1536.0,0.005403
1537.0,0.005365
1538.0,0.005696
1539.0,0.005415
1540.0,0.0057
1541.0,0.00556
1542.0,0.005292
1543.0,0.00572
1544.0,0.005516
1545.0,0.005895
1546.0,0.005253
1547.0,0.005579
1548.0,0.005608
1549.0,0.005927
1550.0,0.005744
1551.0,0.005579
1552.0,0.005537
1553.0,0.005746
1554.0,0.005524
1555.0,0.005735
1556.0,0.005617
1557.0,0.005764
1558.0,0.005753
1559.0,0.005689
1560.0,0.005636
1561.0,0.005709
1562.0,0.005497
1563.0,0.005427
1564.0,0.005383
1565.0,0.005739
1566.0,0.005458
1567.0,0.005535
1568.0,0.005395
1569.0,0.005675
1570.0,0.005647
1571.0,0.005637
1572.0,0.005617
1573.0,0.005445
1574.0,0.005115
1575.0,0.004983
1576.0,0.004536
1577.0,0.00436
1578.0,0.004404
1579.0,0.004114
1580.0,0.004288
1581.0,0.004246
1582.0,0.004257
1583.0,0.004159
1584.0,0.004862
1585.0,0.005057
1586.0,0.004936
1587.0,0.004791
1588.0,0.005201
1589.0,0.0051
1590.0,0.005004
1591.0,0.00525
1592.0,0.005128
1593.0,0.00545
1594.0,0.005315
1595.0,0.005356
1596.0,0.005085
1597.0,0.004893
1598.0,0.005412
1599.0,0.005403
1600.0,0.0055
1601.0,0.005234
1602.0,0.00508
1603.0,0.005474
1604.0,0.005395
1605.0,0.005452
1606.0,0.005363
1607.0,0.005431
1608.0,0.005051
1609.0,0.005203
1610.0,0.00506
1611.0,0.005136
1612.0,0.005327
1613.0,0.005095
1614.0,0.005244
1615.0,0.00516
1616.0,0.005074
1617.0,0.004904
1618.0,0.005268
1619.0,0.004837
1620.0,0.005101
1621.0,0.00505
1622.0,0.005107
1623.0,0.005226
1624.0,0.004978
1625.0,0.004909
1626.0,0.00491
1627.0,0.005053
1628.0,0.004859
1629.0,0.004988
1630.0,0.00486
1631.0,0.004455
1632.0,0.004703
1633.0,0.00375
1634.0,0.004754
1635.0,0.003702
1636.0,0.004297
1637.0,0.004542
1638.0,0.002831
1639.0,0.00441
1640.0,0.002619
1641.0,0.004128
1642.0,0.004617
1643.0,0.002143
1644.0,0.004825
1645.0,0.003126
1646.0,0.002071
1647.0,0.004788
1648.0,0.002112
1649.0,0.004057
1650.0,0.004273
1651.0,0.001706
1652.0,0.00389
1653.0,0.004469
1654.0,0.002222
1655.0,0.004244
1656.0,0.003286
1657.0,0.003705
1658.0,0.004576
1659.0,0.004262
1660.0,0.00427
1661.0,0.004346
1662.0,0.003413
1663.0,0.004504
1664.0,0.004327
1665.0,0.002171
1666.0,0.0002232
1667.0,0.002202
1668.0,0.003881
1669.0,0.004046
1670.0,0.004448
1671.0,0.003904
1672.0,0.004263
1673.0,0.00443
1674.0,0.003489
1675.0,0.003716
1676.0,0.004209
1677.0,0.003619
1678.0,0.002867
1679.0,0.004337
1680.0,0.00384
1681.0,0.002867
1682.0,0.004233
1683.0,0.004376
1684.0,0.001684
1685.0,0.004323
1686.0,0.004297
1687.0,0.0029
1688.0,0.003973
1689.0,0.00408
1690.0,0.003697
1691.0,0.001863
1692.0,0.003374
1693.0,0.004315
1694.0,0.003009
1695.0,0.003938
1696.0,0.00424
1697.0,0.001226
1698.0,0.003726
1699.0,0.003844
1700.0,0.003137
1702.0,0.003691
1705.0,0.002892
1710.0,0.002569
1715.0,0.002866
1720.0,0.003024
1725.0,0.001758
1730.0,0.002428
1735.0,0.001925
1740.0,0.002013
1745.0,0.002186
1750.0,0.001327
1755.0,0.001515
1760.0,0.001121
1765.0,0.0007844
1770.0,0.0006236
1775.0,0.0003979
1780.0,0.0002054
1785.0,6.956e-05
1790.0,5.025e-05
1795.0,8.877e-06
1800.0,6.107e-06
1805.0,2.424e-06
1810.0,1.574e-06
1815.0,4.554e-07
1820.0,1.139e-07
1825.0,1.487e-07
1830.0,3.624e-10
1835.0,5.488e-10
1840.0,3.203e-12
1845.0,3.424e-10
1850.0,1.546e-10
1855.0,1.478e-11
1860.0,8.467e-10
1865.0,1.18e-09
1870.0,6.459e-15
1875.0,1.167e-14
1880.0,6.215e-09
1885.0,3.312e-09
1890.0,1.817e-08
1895.0,1.054e-08
1900.0,4.506e-11
1905.0,3.07e-11
1910.0,1.487e-09
1915.0,1.448e-09
1920.0,3.799e-08
1925.0,8.925e-08
1930.0,5.155e-08
1935.0,3.93e-07
1940.0,3.902e-07
1945.0,1.607e-06
1950.0,3.133e-06
1955.0,2.787e-06
1960.0,4.943e-06
1965.0,6.599e-05
1970.0,0.0001643
1975.0,0.0002143
1980.0,0.0001075
1985.0,0.0001938
1990.0,0.0004922
1995.0,0.0004584
2000.0,0.0007704
2005.0,0.0003401
2010.0,0.001617
2015.0,0.0004029
2020.0,0.0007399
2025.0,0.00127
2030.0,0.0008458
2035.0,0.001614
2040.0,0.001207
2045.0,0.001314
2050.0,0.00184
2055.0,0.001296
2060.0,0.00114
2065.0,0.001421
2070.0,0.001238
2075.0,0.00174
2080.0,0.001747
2085.0,0.00172
2090.0,0.00184
2095.0,0.001648
2100.0,0.001182
2105.0,0.001655
2110.0,0.001295
2115.0,0.001687
2120.0,0.001173
2125.0,0.001456
2130.0,0.001708
2135.0,0.001813
2140.0,0.001868
2145.0,0.001839
2150.0,0.001151
2155.0,0.001129
2160.0,0.00122
2165.0,0.001025
2170.0,0.001324
2175.0,0.001001
2180.0,0.001251
2185.0,0.0007943
2190.0,0.001176
2195.0,0.001079
2200.0,0.0002777
2205.0,0.0007078
2210.0,0.001428
2215.0,0.001011
2220.0,0.001115
2225.0,0.0009459
2230.0,0.0009649
2235.0,0.0008167
2240.0,0.0007874
2245.0,0.0005105
2250.0,0.0007694
2255.0,0.0003498
2260.0,0.0003117
2265.0,0.0004928
2270.0,0.0002284
2275.0,0.0002033
2280.0,0.0004685
2285.0,0.0002076
2290.0,0.0002232
2295.0,0.0002023
2300.0,0.0001029
2305.0,0.0001236
2310.0,0.0005088
2315.0,0.0001312
2320.0,4.494e-05
2325.0,0.000287
2330.0,0.0001675
2335.0,0.000228
2340.0,3.462e-05
2345.0,5.029e-05
2350.0,2.59e-05
2355.0,3.701e-05
2360.0,5.675e-05
2365.0,0.0001486
2370.0,2.604e-06
2375.0,3.163e-05
2380.0,7.064e-05
2385.0,9.457e-06
2390.0,1.341e-05
2395.0,1.903e-05
2400.0,2.419e-05
2405.0,2.904e-05
2410.0,2.615e-05
2415.0,3.35e-06
2420.0,2.71e-06
2425.0,4.185e-06
2430.0,1.228e-05
2435.0,9e-07
2440.0,1.404e-05
2445.0,1.366e-06
2450.0,7.74e-07
2455.0,4.619e-06
2460.0,2.359e-06
2465.0,1.388e-06
2470.0,8.907e-07
2475.0,8.657e-07
2480.0,4.066e-07
2485.0,2.627e-07
2490.0,1.511e-07
2495.0,1.307e-07
2500.0,3.242e-07
2505.0,6.592e-08
2510.0,9.7e-08
2515.0,2.057e-08
2520.0,1.154e-08
2525.0,1.316e-09
2530.0,9.163e-12
2535.0,2.026e-12
2540.0,4.808e-12
2545.0,3.729e-16
2550.0,1.512e-18
2555.0,7.256e-15
2560.0,2.178e-16
2565.0,4.8750000000000005e-20
2570.0,1.452e-24
2575.0,9.183e-35
2580.0,9.575999999999999e-29
2585.0,2.0010000000000003e-42
2590.0,1.249e-38
2595.0,2.43e-40
2600.0,2e-35
2605.0,2.211e-42
2610.0,7.609e-42
2615.0,0.0
2620.0,6.706e-36
2625.0,1.228e-35
2630.0,0.0
2635.0,6.394999999999999e-22
2640.0,1.384e-22
2645.0,6.034e-25
2650.0,6.011000000000001e-26
2655.0,7.228000000000001e-35
2660.0,6.086e-32
2665.0,5.605e-45
2670.0,0.0
2675.0,2.943e-44
2680.0,1.234e-30
2685.0,1.1790000000000001e-31
2690.0,4.411000000000001e-31
2695.0,1.73e-33
2700.0,5.04e-29
2705.0,1.429e-26
2710.0,1.138e-31
2715.0,1.437e-29
2720.0,0.0
2725.0,3.218e-27
2730.0,9.382000000000001e-25
2735.0,1.0700000000000001e-26
2740.0,1.9330000000000002e-32
2745.0,2.492e-27
2750.0,1.397e-26
2755.0,2.247e-28
2760.0,3.367e-23
2765.0,1.5799999999999999e-29
2770.0,7.765999999999999e-27
2775.0,6.099e-23
2780.0,4.463e-21
2785.0,1.676e-20
2790.0,3.821e-18
2795.0,8.407e-19
2800.0,2.723e-15
2805.0,5.018e-17
2810.0,2.012e-13
2815.0,6.001e-14
2820.0,7.333e-16
2825.0,2.419e-09
2830.0,1.399e-10
2835.0,1.927e-15
2840.0,4.204e-12
2845.0,1.427e-09
2850.0,2.47e-11
2855.0,9.865e-12
2860.0,5.636e-10
2865.0,3.781e-09
2870.0,1.155e-10
2875.0,9.204e-09
2880.0,5.8e-09
2885.0,9.555e-09
2890.0,4.062e-09
2895.0,6.924e-08
2900.0,1.93e-08
2905.0,2.234e-09
2910.0,7.062e-08
2915.0,2.997e-08
2920.0,7.437e-08
2925.0,2.651e-08
2930.0,1.605e-07
2935.0,1.769e-07
2940.0,3.961e-08
2945.0,3.402e-08
2950.0,1.373e-07
2955.0,6.114e-08
2960.0,1.215e-07
2965.0,2.061e-07
2970.0,8.047e-09
2975.0,2.04e-08
2980.0,3.175e-08
2985.0,1.895e-07
2990.0,3.557e-07
2995.0,1.086e-07
3000.0,2.094e-07
3005.0,6.948e-08
3010.0,1.871e-07
3015.0,1.402e-07
3020.0,1.252e-08
3025.0,1.913e-07
3030.0,1.52e-07
3035.0,5.715e-08
3040.0,4.467e-08
3045.0,9.597e-08
3050.0,2.174e-08
3055.0,5.32e-09
3060.0,1.494e-07
3065.0,6.322e-08
3070.0,3.552e-08
3075.0,1.394e-07
3080.0,8.085e-08
3085.0,3.57e-08
3090.0,4.855e-08
3095.0,1.194e-08
3100.0,9.705e-08
3105.0,1.818e-08
3110.0,1.522e-08
3115.0,4.567e-08
3120.0,2.258e-07
3125.0,3.092e-07
3130.0,1.319e-07
3135.0,2.843e-07
3140.0,6.992e-08
3145.0,6.834e-08
3150.0,1.458e-07
3155.0,1.33e-07
3160.0,2.422e-07
3165.0,7.644e-07
3170.0,1.087e-06
3175.0,2.083e-07
3180.0,4.059e-07
3185.0,1.62e-07
3190.0,8.876e-08
3195.0,4.711e-08
3200.0,6.649e-09
3205.0,4.344e-09
3210.0,1.81e-09
3215.0,7.357e-09
3220.0,2.583e-08
3225.0,2.97e-09
3230.0,4.933e-09
3235.0,1.383e-07
3240.0,6.285e-08
3245.0,1.194e-08
3250.0,4.401e-08
3255.0,1.896e-07
3260.0,1.883e-08
3265.0,4.076e-08
3270.0,1.919e-08
3275.0,1.16e-07
3280.0,4.92e-08
3285.0,2.582e-07
3290.0,1.617e-07
3295.0,1.981e-08
3300.0,2.931e-08
3305.0,6.73e-08
3310.0,6.39e-08
3315.0,9.263e-11
3320.0,5.837e-10
3325.0,5.367e-08
3330.0,9.083e-08
3335.0,1.742e-07
3340.0,4.383e-07
3345.0,5.647e-08
3350.0,2.11e-07
3355.0,5.748e-08
3360.0,9.125e-08
3365.0,3.119e-07
3370.0,5.987e-08
3375.0,1.073e-06
3380.0,7.891e-08
3385.0,9.679e-07
3390.0,3.043e-07
3395.0,1.101e-06
3400.0,1.386e-05
3405.0,6.574e-08
3410.0,1.494e-06
3415.0,1.195e-07
3420.0,3.419e-05
3425.0,6.404e-07
3430.0,1.754e-07
3435.0,2.635e-05
3440.0,1.461e-07
3445.0,1.199e-05
3450.0,3.555e-06
3455.0,5.351e-07
3460.0,4.255e-05
3465.0,6.344e-07
3470.0,3.919e-05
3475.0,5.419e-06
3480.0,6.073e-06
3485.0,3.228e-05
3490.0,3.319e-06
3495.0,3.288e-05
3500.0,2.964e-05
3505.0,2.721e-05
3510.0,2.988e-05
3515.0,2.839e-05
3520.0,4.665e-05
3525.0,4.626e-05
3530.0,2.344e-05
3535.0,3.257e-06
3540.0,2.423e-06
3545.0,2.475e-06
3550.0,2.083e-05
3555.0,4.984e-06
3560.0,3.222e-05
3565.0,1.646e-05
3570.0,4.497e-06
3575.0,2.322e-06
3580.0,1.646e-05
3585.0,4.441e-06
3590.0,1.167e-05
3595.0,3.017e-05
3600.0,4.189e-05
3605.0,1.821e-05
3610.0,1.345e-05
3615.0,3.222e-05
3620.0,0.0001023
3625.0,2.442e-05
3630.0,3.712e-05
3635.0,4.45e-05
3640.0,0.000117
3645.0,3.18e-05
3650.0,3.759e-05
3655.0,7.879e-05
3660.0,9.606e-05
3665.0,2.464e-05
3670.0,1.175e-05
3675.0,4.332e-07
3680.0,7.942e-06
3685.0,1.932e-05
3690.0,1.63e-05
3695.0,5.651e-05
3700.0,0.0001221
3705.0,0.0001098
3710.0,2.972e-05
3715.0,4.659e-05
3720.0,8.776e-05
3725.0,0.0001021
3730.0,4.404e-05
3735.0,2.276e-05
3740.0,4.177e-05
3745.0,9.496e-05
3750.0,5.805e-05
3755.0,4.275e-05
3760.0,2.693e-05
3765.0,2.922e-05
3770.0,4.563e-05
3775.0,4.788e-05
3780.0,7.435e-05
3785.0,4.406e-05
3790.0,1.972e-05
3795.0,5.698e-05
3800.0,0.0001002
3805.0,7.352e-05
3810.0,3.372e-05
3815.0,2.747e-05
3820.0,9.806e-05
3825.0,9.803e-05
3830.0,0.0001019
3835.0,2.123e-05
3840.0,5.863e-05
3845.0,3.984e-05
3850.0,4.057e-05
3855.0,3.174e-05
3860.0,1.019e-05
3865.0,1.01e-05
3870.0,2.556e-06
3875.0,7.547e-07
3880.0,4.27e-07
3885.0,7.067e-07
3890.0,9.033e-07
3895.0,3.418e-06
3900.0,1.288e-05
3905.0,1.051e-05
3910.0,1.879e-06
3915.0,1.415e-06
3920.0,1.521e-06
3925.0,1.38e-06
3930.0,2.097e-06
3935.0,4.221e-06
3940.0,5.264e-06
3945.0,7.505e-06
3950.0,1.083e-05
3955.0,1.328e-05
3960.0,1.576e-05
3965.0,1.809e-05
3970.0,1.59e-05
3975.0,1.118e-05
3980.0,9.659e-06
3985.0,1.117e-05
3990.0,9.768e-06
3995.0,7.423e-06
4000.0,5.633e-06
