interpolation:linear
wavelength,value
280.0,2.3699999999999998e-23
280.5,8.254e-22
281.0,4.502e-21
281.5,1.512e-19
282.0,1.243e-18
282.5,4.798e-18
283.0,1.383e-17
283.5,2.192e-17
284.0,3.515e-16
284.5,1.027e-15
285.0,7.104e-16
285.5,3.796e-15
286.0,1.554e-14
286.5,7.247e-14
287.0,2.121e-13
287.5,8.389e-13
288.0,8.648e-12
288.5,1.924e-11
289.0,4.385e-11
289.5,1.201e-10
290.0,3.155e-10
290.5,6.195e-10
291.0,1.286e-09
291.5,3.584e-09
292.0,6.841e-09
292.5,9.123e-09
293.0,1.853e-08
293.5,4.257e-08
294.0,6.365e-08
294.5,1.278e-08
295.0,2.146e-08
295.5,3.329e-08
296.0,5.817e-08
296.5,7.383e-08
297.0,9.227e-08
297.5,2.199e-07
298.0,3.131e-07
298.5,2.912e-07
299.0,5.947e-07
299.5,8.626e-07
300.0,8.796e-07
300.5,1.179e-06
301.0,1.883e-06
301.5,2.679e-06
302.0,2.163e-06
302.5,2.775e-06
303.0,5.008e-06
303.5,6.304e-06
304.0,5.894e-06
304.5,8.787e-06
305.0,1.365e-05
305.5,1.609e-05
306.0,1.58e-05
306.5,2.02e-05
307.0,3.217e-05
307.5,4.651e-05
308.0,4.987e-05
308.5,6.177e-05
309.0,5.596e-05
309.5,6.263e-05
310.0,6.336e-05
310.5,0.0001034
311.0,0.0001318
311.5,0.0001284
312.0,0.000136
312.5,0.000174
313.0,0.0001945
313.5,0.0001837
314.0,0.000247
314.5,0.0002503
315.0,0.0003402
315.5,0.00026
316.0,0.0002646
316.5,0.0004361
317.0,0.0005401
317.5,0.0005402
318.0,0.0004638
318.5,0.0006972
319.0,0.0009145
319.5,0.0006353
320.0,0.0007498
320.5,0.001147
321.0,0.001236
321.5,0.001209
322.0,0.001049
322.5,0.0009224
323.0,0.001049
323.5,0.002627
324.0,0.003191
324.5,0.002925
325.0,0.001352
325.5,0.001944
326.0,0.004531
326.5,0.005149
327.0,0.004898
327.5,0.004456
328.0,0.003333
328.5,0.004319
329.0,0.006213
329.5,0.007489
330.0,0.007196
330.5,0.004961
331.0,0.004844
331.5,0.005432
332.0,0.00692
332.5,0.007358
333.0,0.007038
333.5,0.005648
334.0,0.005669
334.5,0.0075
335.0,0.007609
335.5,0.009474
336.0,0.006554
336.5,0.006934
337.0,0.005376
337.5,0.006547
338.0,0.007136
338.5,0.008908
339.0,0.008886
339.5,0.008505
340.0,0.009267
340.5,0.008444
341.0,0.008823
341.5,0.008218
342.0,0.00986
342.5,0.009263
343.0,0.0101
343.5,0.009453
344.0,0.006514
344.5,0.006978
345.0,0.009393
345.5,0.009658
346.0,0.008248
346.5,0.009369
347.0,0.009984
347.5,0.008052
348.0,0.009266
348.5,0.009313
349.0,0.008662
349.5,0.008568
350.0,0.01061
350.5,0.01119
351.0,0.009952
351.5,0.009562
352.0,0.01035
352.5,0.008124
353.0,0.01027
353.5,0.01101
354.0,0.01145
354.5,0.01162
355.0,0.01156
355.5,0.01046
356.0,0.01096
356.5,0.00936
357.0,0.007733
357.5,0.009475
358.0,0.007516
358.5,0.006427
359.0,0.008983
359.5,0.01141
360.0,0.01211
360.5,0.009697
361.0,0.008852
361.5,0.0102
362.0,0.008831
362.5,0.01223
363.0,0.01099
363.5,0.01012
364.0,0.01238
364.5,0.01058
365.0,0.01078
365.5,0.01353
366.0,0.01434
366.5,0.01348
367.0,0.01314
367.5,0.01364
368.0,0.01193
368.5,0.01204
369.0,0.01301
369.5,0.01387
370.0,0.01479
370.5,0.01148
371.0,0.01227
371.5,0.01536
372.0,0.0102
372.5,0.01223
373.0,0.01244
373.5,0.008096
374.0,0.01177
374.5,0.009747
375.0,0.009477
375.5,0.01415
376.0,0.01174
376.5,0.01216
377.0,0.01288
377.5,0.01508
378.0,0.01635
378.5,0.01545
379.0,0.01275
379.5,0.01165
380.0,0.01212
380.5,0.01468
381.0,0.01471
381.5,0.01167
382.0,0.01036
382.5,0.008836
383.0,0.008182
383.5,0.007883
384.0,0.008698
384.5,0.0128
385.0,0.01269
385.5,0.01182
386.0,0.01013
386.5,0.01331
387.0,0.01106
387.5,0.01243
388.0,0.01147
388.5,0.01134
389.0,0.01225
389.5,0.01484
390.0,0.01489
390.5,0.01371
391.0,0.01614
391.5,0.01647
392.0,0.01387
392.5,0.01242
393.0,0.006915
393.5,0.005027
394.0,0.01023
394.5,0.01301
395.0,0.01588
395.5,0.01614
396.0,0.01399
396.5,0.008183
397.0,0.006143
397.5,0.0125
398.0,0.01751
398.5,0.0181
399.0,0.0196
399.5,0.01954
400.0,0.0203
401.0,0.02005
402.0,0.02115
403.0,0.0201
404.0,0.0198
405.0,0.0198
406.0,0.01949
407.0,0.01917
408.0,0.01991
409.0,0.02131
410.0,0.01862
411.0,0.02018
412.0,0.02168
413.0,0.02116
414.0,0.02142
415.0,0.02147
416.0,0.02184
417.0,0.0213
418.0,0.02091
419.0,0.0212
420.0,0.02111
421.0,0.02209
422.0,0.02098
423.0,0.02047
424.0,0.02164
425.0,0.02159
426.0,0.02103
427.0,0.02066
428.0,0.02014
429.0,0.0191
430.0,0.01672
431.0,0.01656
432.0,0.02136
433.0,0.02147
434.0,0.01994
435.0,0.02084
436.0,0.0235
437.0,0.02318
438.0,0.02108
439.0,0.02175
440.0,0.02241
441.0,0.02318
442.0,0.02483
443.0,0.02418
444.0,0.02473
445.0,0.02424
446.0,0.02319
447.0,0.0251
448.0,0.02547
449.0,0.02554
450.0,0.02622
451.0,0.02719
452.0,0.02622
453.0,0.02468
454.0,0.02579
455.0,0.02591
456.0,0.02649
457.0,0.02685
458.0,0.02584
459.0,0.02561
460.0,0.02559
461.0,0.02613
462.0,0.02635
463.0,0.02622
464.0,0.02589
465.0,0.02567
466.0,0.02597
467.0,0.02547
468.0,0.02572
469.0,0.02579
470.0,0.02493
471.0,0.02491
472.0,0.02626
473.0,0.02593
474.0,0.02594
475.0,0.02607
476.0,0.02514
477.0,0.02507
478.0,0.02565
479.0,0.02538
480.0,0.02532
481.0,0.02573
482.0,0.02586
483.0,0.02561
484.0,0.02517
485.0,0.0241
486.0,0.02117
487.0,0.02225
488.0,0.02442
489.0,0.02445
490.0,0.0257
491.0,0.02523
492.0,0.02382
493.0,0.02461
494.0,0.02488
495.0,0.02509
496.0,0.02521
497.0,0.02553
498.0,0.02422
499.0,0.02437
500.0,0.02351
501.0,0.02291
502.0,0.02237
503.0,0.02307
504.0,0.02221
505.0,0.02313
506.0,0.02389
507.0,0.02277
508.0,0.02217
509.0,0.02292
510.0,0.02291
511.0,0.02361
512.0,0.02391
513.0,0.02262
514.0,0.02244
515.0,0.02219
516.0,0.0221
517.0,0.01962
518.0,0.02061
519.0,0.0216
520.0,0.02234
521.0,0.0225
522.0,0.02243
523.0,0.02197
524.0,0.0226
525.0,0.02269
526.0,0.02158
527.0,0.02017
528.0,0.02122
529.0,0.02224
530.0,0.02182
531.0,0.02205
532.0,0.02124
533.0,0.02061
534.0,0.02125
535.0,0.02179
536.0,0.02206
537.0,0.02124
538.0,0.02163
539.0,0.02142
540.0,0.02047
541.0,0.0204
542.0,0.02098
543.0,0.02083
544.0,0.02104
545.0,0.02098
546.0,0.02096
547.0,0.02104
548.0,0.02085
549.0,0.02094
550.0,0.02119
551.0,0.02095
552.0,0.0211
553.0,0.0207
554.0,0.02118
555.0,0.02118
556.0,0.02085
557.0,0.02013
558.0,0.01987
559.0,0.01938
560.0,0.0195
561.0,0.01963
562.0,0.01935
563.0,0.01973
564.0,0.01908
565.0,0.0188
566.0,0.01843
567.0,0.01862
568.0,0.01813
569.0,0.01738
570.0,0.01732
571.0,0.01722
572.0,0.01736
573.0,0.01745
574.0,0.01728
575.0,0.01685
576.0,0.01668
577.0,0.0169
578.0,0.0168
579.0,0.01713
580.0,0.01787
581.0,0.01832
582.0,0.01895
583.0,0.01923
584.0,0.01957
585.0,0.01921
586.0,0.01887
587.0,0.01913
588.0,0.01826
589.0,0.01502
590.0,0.01561
591.0,0.01731
592.0,0.01657
593.0,0.01731
594.0,0.01703
595.0,0.01616
596.0,0.01791
597.0,0.01714
598.0,0.01745
599.0,0.01762
600.0,0.01776
601.0,0.01779
602.0,0.01774
603.0,0.01821
604.0,0.01864
605.0,0.01868
606.0,0.01871
607.0,0.01902
608.0,0.01895
609.0,0.01914
610.0,0.01916
611.0,0.01941
612.0,0.0195
613.0,0.0194
614.0,0.01927
615.0,0.01981
616.0,0.01926
617.0,0.01931
618.0,0.02014
619.0,0.02
620.0,0.02016
621.0,0.02022
622.0,0.02
623.0,0.01969
624.0,0.01931
625.0,0.01921
626.0,0.01939
627.0,0.01929
628.0,0.01439
629.0,0.0173
630.0,0.01676
631.0,0.01836
632.0,0.01851
633.0,0.01963
634.0,0.01997
635.0,0.02061
636.0,0.02063
637.0,0.02127
638.0,0.02189
639.0,0.02187
640.0,0.02198
641.0,0.02218
642.0,0.02237
643.0,0.02278
644.0,0.02294
645.0,0.02277
646.0,0.02184
647.0,0.02002
648.0,0.02042
649.0,0.01954
650.0,0.02159
651.0,0.02296
652.0,0.02043
653.0,0.02292
654.0,0.02286
655.0,0.02098
656.0,0.01915
657.0,0.02003
658.0,0.02291
659.0,0.02358
660.0,0.02381
661.0,0.02453
662.0,0.02506
663.0,0.02466
664.0,0.02502
665.0,0.02515
666.0,0.02535
667.0,0.02547
668.0,0.02574
669.0,0.02623
670.0,0.02626
671.0,0.0264
672.0,0.02631
673.0,0.02684
674.0,0.02687
675.0,0.02675
676.0,0.02705
677.0,0.0269
678.0,0.0271
679.0,0.02677
680.0,0.02706
681.0,0.0269
682.0,0.0269
683.0,0.02685
684.0,0.02666
685.0,0.02711
686.0,0.02669
687.0,0.007223
688.0,0.009133
689.0,0.009207
690.0,0.01039
691.0,0.01255
692.0,0.01535
693.0,0.01579
694.0,0.017
695.0,0.02028
696.0,0.02049
697.0,0.02593
698.0,0.02471
699.0,0.02144
700.0,0.02127
701.0,0.0199
702.0,0.02062
703.0,0.02185
704.0,0.02417
705.0,0.02374
706.0,0.02433
707.0,0.02462
708.0,0.02488
709.0,0.02609
710.0,0.0248
711.0,0.02542
712.0,0.02631
713.0,0.02492
714.0,0.02577
715.0,0.0238
716.0,0.02302
717.0,0.0129
718.0,0.0122
719.0,0.0113
720.0,0.01079
721.0,0.01465
722.0,0.01955
723.0,0.0171
724.0,0.01374
725.0,0.01292
726.0,0.01284
727.0,0.01552
728.0,0.012
729.0,0.01443
730.0,0.01439
731.0,0.01334
732.0,0.01692
733.0,0.02016
734.0,0.02201
735.0,0.02114
736.0,0.02006
737.0,0.02066
738.0,0.02426
739.0,0.02382
740.0,0.02547
741.0,0.02574
742.0,0.02648
743.0,0.02722
744.0,0.02747
745.0,0.02803
746.0,0.02817
747.0,0.02838
748.0,0.02839
749.0,0.02813
750.0,0.02815
751.0,0.02787
752.0,0.02807
753.0,0.02829
754.0,0.02831
755.0,0.0281
756.0,0.02819
757.0,0.0282
758.0,0.02772
759.0,0.02385
760.0,0.001322
761.0,0.0007052
762.0,0.003881
763.0,0.001971
764.0,0.002916
765.0,0.003839
766.0,0.004785
767.0,0.007267
768.0,0.01419
769.0,0.01749
770.0,0.0229
771.0,0.02584
772.0,0.02687
773.0,0.02732
774.0,0.02742
775.0,0.0274
776.0,0.02783
777.0,0.02752
778.0,0.02732
779.0,0.02737
780.0,0.02728
781.0,0.02735
782.0,0.02757
783.0,0.02716
784.0,0.0274
785.0,0.02702
786.0,0.02701
787.0,0.02437
788.0,0.02363
789.0,0.02351
790.0,0.02093
791.0,0.02289
792.0,0.0232
793.0,0.02263
794.0,0.02558
795.0,0.02539
796.0,0.02084
797.0,0.02132
798.0,0.02506
799.0,0.02427
800.0,0.02243
801.0,0.02173
802.0,0.02147
803.0,0.02033
804.0,0.0212
805.0,0.02226
806.0,0.02507
807.0,0.02444
808.0,0.02412
809.0,0.02189
810.0,0.02161
811.0,0.01904
812.0,0.01708
813.0,0.01636
814.0,0.01135
815.0,0.01149
816.0,0.01119
817.0,0.01112
818.0,0.01056
819.0,0.01252
820.0,0.01293
821.0,0.01804
822.0,0.01602
823.0,0.005754
824.0,0.01401
825.0,0.01945
826.0,0.01492
827.0,0.01824
828.0,0.01059
829.0,0.01638
830.0,0.01605
831.0,0.01563
832.0,0.01451
833.0,0.01663
834.0,0.01558
835.0,0.02094
836.0,0.01735
837.0,0.02071
838.0,0.01866
839.0,0.02092
840.0,0.02209
841.0,0.02077
842.0,0.02202
843.0,0.02404
844.0,0.02294
845.0,0.02445
846.0,0.02503
847.0,0.02492
848.0,0.02402
849.0,0.02344
850.0,0.02234
851.0,0.02282
852.0,0.02331
853.0,0.02293
854.0,0.0194
855.0,0.02187
856.0,0.02372
857.0,0.02475
858.0,0.02436
859.0,0.02489
860.0,0.02516
861.0,0.02494
862.0,0.02547
863.0,0.02605
864.0,0.02483
865.0,0.0247
866.0,0.02221
867.0,0.0232
868.0,0.02528
869.0,0.02481
870.0,0.02555
871.0,0.02518
872.0,0.02516
873.0,0.02513
874.0,0.02485
875.0,0.02428
876.0,0.02451
877.0,0.02478
878.0,0.02497
879.0,0.02461
880.0,0.02404
881.0,0.02333
882.0,0.02353
883.0,0.02407
884.0,0.02377
885.0,0.02374
886.0,0.02146
887.0,0.02287
888.0,0.02252
889.0,0.02396
890.0,0.0224
891.0,0.02316
892.0,0.0202
893.0,0.01882
894.0,0.01521
895.0,0.01183
896.0,0.01037
897.0,0.007788
898.0,0.008716
899.0,0.004763
900.0,0.00899
901.0,0.005109
902.0,0.006248
903.0,0.006788
904.0,0.01393
905.0,0.01259
906.0,0.01119
907.0,0.006027
908.0,0.007313
909.0,0.007682
910.0,0.004972
911.0,0.007279
912.0,0.008709
913.0,0.005127
914.0,0.006668
915.0,0.005275
916.0,0.00528
917.0,0.007302
918.0,0.00489
919.0,0.007937
920.0,0.0111
921.0,0.01075
922.0,0.007929
923.0,0.01065
924.0,0.007373
925.0,0.006863
926.0,0.007005
927.0,0.008643
928.0,0.003071
929.0,0.002363
930.0,0.001422
931.0,0.001299
932.0,0.0008861
933.0,0.0007069
934.0,0.0003818
935.0,0.000718
936.0,0.0004436
937.0,0.0004477
938.0,0.0005486
939.0,0.001223
940.0,0.001588
941.0,0.001071
942.0,0.001257
943.0,0.0007887
944.0,0.0008561
945.0,0.001098
946.0,0.0005268
947.0,0.00108
948.0,0.0007954
949.0,0.001542
950.0,0.0003808
951.0,0.001507
952.0,0.0007755
953.0,0.001013
954.0,0.001274
955.0,0.001165
956.0,0.001261
957.0,0.0007738
958.0,0.001955
959.0,0.001256
960.0,0.001504
961.0,0.001978
962.0,0.001855
963.0,0.002816
964.0,0.002403
965.0,0.002438
966.0,0.002981
967.0,0.003044
968.0,0.009921
969.0,0.00738
970.0,0.007793
971.0,0.01042
972.0,0.009758
973.0,0.005325
974.0,0.005094
975.0,0.006176
976.0,0.004897
977.0,0.009408
978.0,0.006366
979.0,0.007572
980.0,0.007241
981.0,0.01099
982.0,0.009708
983.0,0.008558
984.0,0.01415
985.0,0.009083
986.0,0.0172
987.0,0.01405
988.0,0.01503
989.0,0.01858
990.0,0.01379
991.0,0.0185
992.0,0.01886
993.0,0.01591
994.0,0.01923
995.0,0.01973
996.0,0.01915
997.0,0.01933
998.0,0.01905
999.0,0.01915
1000.0,0.01852
1001.0,0.01939
1002.0,0.01575
1003.0,0.01898
1004.0,0.01744
1005.0,0.01788
1006.0,0.01847
1007.0,0.01879
1008.0,0.01835
1009.0,0.01773
1010.0,0.01755
1011.0,0.01864
1012.0,0.0183
1013.0,0.01893
1014.0,0.01879
1015.0,0.01865
1016.0,0.01843
1017.0,0.01828
1018.0,0.01867
1019.0,0.017
1020.0,0.01843
1021.0,0.01859
1022.0,0.01802
1023.0,0.01831
1024.0,0.01694
1025.0,0.01852
1026.0,0.018
1027.0,0.01827
1028.0,0.01809
1029.0,0.0176
1030.0,0.01815
1031.0,0.01803
1032.0,0.01799
1033.0,0.01779
1034.0,0.01777
1035.0,0.01785
1036.0,0.01772
1037.0,0.01753
1038.0,0.01754
1039.0,0.01742
1040.0,0.01732
1041.0,0.01725
1042.0,0.01711
1043.0,0.01698
1044.0,0.01694
1045.0,0.01662
1046.0,0.01634
1047.0,0.01637
1048.0,0.01634
1049.0,0.01616
1050.0,0.01595
1051.0,0.01577
1052.0,0.01556
1053.0,0.01525
1054.0,0.01509
1055.0,0.01487
1056.0,0.01456
1057.0,0.01434
1058.0,0.0138
1059.0,0.01358
1060.0,0.01346
1061.0,0.01332
1062.0,0.01324
1063.0,0.01289
1064.0,0.01311
1065.0,0.01252
1066.0,0.01264
1067.0,0.01274
1068.0,0.01215
1069.0,0.01212
1070.0,0.01256
1071.0,0.01337
1072.0,0.01275
1073.0,0.01259
1074.0,0.01395
1075.0,0.01126
1076.0,0.01396
1077.0,0.01273
1078.0,0.01158
1079.0,0.01431
1080.0,0.0122
1081.0,0.01084
1082.0,0.01301
1083.0,0.01346
1084.0,0.01069
1085.0,0.01259
1086.0,0.009437
1087.0,0.01076
1088.0,0.01328
1089.0,0.01046
1090.0,0.009743
1091.0,0.01232
1092.0,0.01259
1093.0,0.006928
1094.0,0.01083
1095.0,0.006796
1096.0,0.005786
1097.0,0.0125
1098.0,0.005684
1099.0,0.005613
1100.0,0.004133
1101.0,0.004925
1102.0,0.003989
1103.0,0.003193
1104.0,0.003724
1105.0,0.004449
1106.0,0.001586
1107.0,0.004262
1108.0,0.001975
1109.0,0.001981
1110.0,0.002891
1111.0,0.0008343
1112.0,0.002176
1113.0,0.0005589
1114.0,0.0006069
1115.0,0.0004599
1116.0,0.0003063
1117.0,0.0001085
1118.0,0.0003339
1119.0,0.0001601
1120.0,0.0002005
1121.0,0.0002661
1122.0,0.0001102
1123.0,0.0001793
1124.0,0.0001508
1125.0,0.0001968
1126.0,6.678e-05
1127.0,0.0002204
1128.0,0.0001298
1129.0,0.0001375
1130.0,8.96e-05
1131.0,0.0004207
1132.0,0.0003271
1133.0,0.000203
1134.0,5.056e-05
1135.0,1.895e-05
1136.0,0.0001669
1137.0,0.000403
1138.0,0.0002819
1139.0,0.0004683
1140.0,0.0003632
1141.0,0.0002664
1142.0,0.0003087
1143.0,0.0004536
1144.0,0.0001491
1145.0,0.000188
1146.0,0.0002021
1147.0,6.949e-05
1148.0,0.0003828
1149.0,0.0002948
1150.0,0.000159
1151.0,0.0002693
1152.0,0.0003394
1153.0,0.0003481
1154.0,0.0001782
1155.0,0.0004912
1156.0,0.0004358
1157.0,0.0006626
1158.0,0.0006433
1159.0,0.0007195
1160.0,0.0007108
1161.0,0.001549
1162.0,0.001733
1163.0,0.003935
1164.0,0.002913
1165.0,0.001839
1166.0,0.002835
1167.0,0.003189
1168.0,0.00339
1169.0,0.003924
1170.0,0.005345
1171.0,0.004414
1172.0,0.006345
1173.0,0.004792
1174.0,0.001858
1175.0,0.005779
1176.0,0.009246
1177.0,0.006903
1178.0,0.003262
1179.0,0.008808
1180.0,0.006256
1181.0,0.005335
1182.0,0.001702
1183.0,0.005742
1184.0,0.0053
1185.0,0.004074
1186.0,0.007085
1187.0,0.005151
1188.0,0.001591
1189.0,0.005055
1190.0,0.007389
1191.0,0.004994
1192.0,0.007824
1193.0,0.007345
1194.0,0.007368
1195.0,0.005445
1196.0,0.004389
1197.0,0.007604
1198.0,0.006999
1199.0,0.003013
1200.0,0.006422
1201.0,0.004748
1202.0,0.006608
1203.0,0.005
1204.0,0.004949
1205.0,0.007917
1206.0,0.01
1207.0,0.005891
1208.0,0.006726
1209.0,0.006808
1210.0,0.008533
1211.0,0.007168
1212.0,0.004631
1213.0,0.008395
1214.0,0.005409
1215.0,0.004985
1216.0,0.00911
1217.0,0.008089
1218.0,0.008998
1219.0,0.008382
1220.0,0.008906
1221.0,0.009961
1222.0,0.009051
1223.0,0.008696
1224.0,0.007812
1225.0,0.00906
1226.0,0.01025
1227.0,0.006911
1228.0,0.0111
1229.0,0.01004
1230.0,0.009585
1231.0,0.01162
1232.0,0.01151
1233.0,0.00828
1234.0,0.01238
1235.0,0.01166
1236.0,0.01226
1237.0,0.01087
1238.0,0.01223
1239.0,0.01208
1240.0,0.01232
1241.0,0.01144
1242.0,0.01209
1243.0,0.01208
1244.0,0.01179
1245.0,0.01207
1246.0,0.01205
1247.0,0.01166
1248.0,0.01124
1249.0,0.01165
1250.0,0.01125
1251.0,0.01047
1252.0,0.01131
1253.0,0.009762
1254.0,0.008845
1255.0,0.01096
1256.0,0.008192
1257.0,0.007701
1258.0,0.009619
1259.0,0.006173
1260.0,0.006543
1261.0,0.00368
1262.0,0.002701
1263.0,0.002694
1264.0,0.001325
1265.0,0.002674
1266.0,0.001788
1267.0,0.002344
1268.0,0.00148
1269.0,0.0002256
1270.0,0.002095
1271.0,0.004008
1272.0,0.004112
1273.0,0.003834
1274.0,0.004289
1275.0,0.004638
1276.0,0.005273
1277.0,0.006174
1278.0,0.007425
1279.0,0.007544
1280.0,0.007591
1281.0,0.008033
1282.0,0.008808
1283.0,0.009203
1284.0,0.009493
1285.0,0.009793
1286.0,0.01039
1287.0,0.009418
1288.0,0.009808
1289.0,0.007052
1290.0,0.009664
1291.0,0.0103
1292.0,0.006129
1293.0,0.009462
1294.0,0.009024
1295.0,0.007119
1296.0,0.005731
1297.0,0.004784
1298.0,0.006833
1299.0,0.009142
1300.0,0.004007
1301.0,0.003958
1302.0,0.006858
1303.0,0.004755
1304.0,0.001799
1305.0,0.006163
1306.0,0.005235
1307.0,0.002404
1308.0,0.004227
1309.0,0.004631
1310.0,0.0023
1311.0,0.004133
1312.0,0.003579
1313.0,0.002499
1314.0,0.001285
1315.0,0.001242
1316.0,0.003478
1317.0,0.003378
1318.0,0.004218
1319.0,0.001362
1320.0,0.001102
1321.0,0.002049
1322.0,0.001359
1323.0,0.0004468
1324.0,0.001377
1325.0,0.002165
1326.0,0.001427
1327.0,0.001083
1328.0,0.0004826
1329.0,0.0001775
1330.0,0.000307
1331.0,0.0001231
1332.0,0.000119
1333.0,0.0001795
1334.0,0.0002429
1335.0,0.0002898
1336.0,0.0001801
1337.0,0.000171
1338.0,0.0001698
1339.0,0.0001672
1340.0,0.0001728
1341.0,0.0001351
1342.0,0.0001459
1343.0,9.051e-05
1344.0,5.405e-05
1345.0,7.734e-05
1346.0,3.813e-05
1347.0,3.863e-05
1348.0,2.49e-06
1349.0,8.934e-06
1350.0,9.261e-06
1351.0,2.239e-06
1352.0,6.023e-07
1353.0,3.065e-08
1354.0,1.054e-07
1355.0,8.484e-10
1356.0,1.485e-08
1357.0,2.256e-08
1358.0,9.962e-10
1359.0,1.255e-10
1360.0,4.536e-10
1361.0,5.074e-13
1362.0,1.388e-15
1363.0,6.1e-10
1364.0,2.519e-10
1365.0,4.847e-16
1366.0,2.644e-09
1367.0,1.079e-09
1368.0,3.744e-18
1369.0,9.283e-11
1370.0,4.572e-11
1371.0,2.592e-12
1372.0,5.856e-10
1373.0,1.18e-08
1374.0,5.472e-08
1375.0,9.925e-08
1376.0,8.902e-08
1377.0,4.066e-08
1378.0,3.976e-07
1379.0,1.699e-08
1380.0,2.442e-08
1381.0,6.361e-10
1382.0,5.135e-10
1383.0,7.677e-12
1384.0,1.007e-10
1385.0,4.814e-10
1386.0,4.528e-10
1387.0,5.477e-08
1388.0,1.077e-09
1389.0,1.849e-07
1390.0,1.587e-07
1391.0,1.056e-07
1392.0,6.844e-09
1393.0,3.626e-08
1394.0,1.869e-08
1395.0,1.37e-10
1396.0,6.619e-13
1397.0,1.428e-08
1398.0,4.222e-07
1399.0,2.671e-07
1400.0,2.831e-13
1401.0,1.175e-12
1402.0,7.399e-07
1403.0,9.269e-07
1404.0,2.816e-07
1405.0,6.488e-11
1406.0,7.279e-07
1407.0,6.415e-08
1408.0,5.923e-07
1409.0,1.974e-07
1410.0,1.581e-07
1411.0,7.972e-07
1412.0,1.076e-06
1413.0,1.12e-05
1414.0,1.234e-07
1415.0,5.895e-08
1416.0,1.851e-05
1417.0,5.464e-06
1418.0,6.188e-06
1419.0,9.523e-07
1420.0,3.761e-06
1421.0,4.057e-06
1422.0,2.379e-05
1423.0,4.563e-06
1424.0,8.566e-06
1425.0,1.251e-05
1426.0,1.432e-05
1427.0,2.664e-05
1428.0,1.864e-06
1429.0,1.962e-05
1430.0,3.386e-05
1431.0,3.722e-05
1432.0,1.449e-06
1433.0,2.335e-05
1434.0,1.175e-05
1435.0,1.138e-05
1436.0,2.242e-05
1437.0,1.714e-05
1438.0,7.077e-06
1439.0,3.048e-05
1440.0,2.276e-05
1441.0,1.702e-05
1442.0,1.885e-05
1443.0,2.405e-05
1444.0,3.35e-05
1445.0,2.573e-05
1446.0,1.141e-05
1447.0,1.799e-05
1448.0,6.382e-05
1449.0,5.482e-05
1450.0,1.326e-05
1451.0,5.219e-06
1452.0,3.223e-05
1453.0,4.249e-05
1454.0,7.632e-05
1455.0,3.445e-05
1456.0,4.593e-05
1457.0,6.295e-05
1458.0,8.12e-05
1459.0,9.534e-05
1460.0,4.64e-05
1461.0,4.638e-05
1462.0,7.043e-05
1463.0,2.175e-05
1464.0,8.637e-05
1465.0,5.111e-05
1466.0,3.256e-05
1467.0,1.665e-05
1468.0,3.855e-05
1469.0,4.789e-05
1470.0,2.296e-05
1471.0,8.145e-06
1472.0,2.182e-05
1473.0,3.393e-05
1474.0,5.202e-05
1475.0,0.0001094
1476.0,3.396e-05
1477.0,3.373e-05
1478.0,3.188e-05
1479.0,6.388e-05
1480.0,2.89e-05
1481.0,5.86e-05
1482.0,2.851e-05
1483.0,8.231e-05
1484.0,9.378e-05
1485.0,7.154e-05
1486.0,6.314e-05
1487.0,2.743e-05
1488.0,5.52e-05
1489.0,0.0001598
1490.0,0.0002869
1491.0,0.0003435
1492.0,0.0001194
1493.0,0.0002772
1494.0,0.0006857
1495.0,0.0003649
1496.0,0.0002555
1497.0,0.001466
1498.0,0.0007805
1499.0,0.0009077
1500.0,0.002702
1501.0,0.002544
1502.0,0.002121
1503.0,0.0008911
1504.0,0.0002008
1505.0,0.0008672
1506.0,0.003314
1507.0,0.00302
1508.0,0.002893
1509.0,0.001077
1510.0,0.004018
1511.0,0.002923
1512.0,0.004166
1513.0,0.002126
1514.0,0.001769
1515.0,0.004687
1516.0,0.004063
1517.0,0.002744
1518.0,0.003537
1519.0,0.002518
1520.0,0.003644
1521.0,0.006753
1522.0,0.004624
1523.0,0.007062
1524.0,0.005504
1525.0,0.003873
1526.0,0.003837
1527.0,0.004745
1528.0,0.006478
1529.0,0.005606
1530.0,0.004371
1531.0,0.005281
1532.0,0.007202
1533.0,0.007619
1534.0,0.007526
1535.0,0.006842
1536.0,0.00724
1537.0,0.006893
1538.0,0.007558
1539.0,0.007129
1540.0,0.007567
1541.0,0.0074
1542.0,0.007005
1543.0,0.007562
1544.0,0.007251
1545.0,0.007798
1546.0,0.007031
1547.0,0.00741
1548.0,0.007444
1549.0,0.007821
1550.0,0.007599
1551.0,0.007437
1552.0,0.007245
1553.0,0.007594
1554.0,0.007331
1555.0,0.007575
1556.0,0.007448
1557.0,0.007631
1558.0,0.007602
1559.0,0.007517
1560.0,0.007483
1561.0,0.007572
1562.0,0.007276
1563.0,0.007225
1564.0,0.007179
1565.0,0.00757
1566.0,0.007248
1567.0,0.007349
1568.0,0.007169
1569.0,0.007497
1570.0,0.007476
1571.0,0.007474
1572.0,0.007439
1573.0,0.007237
1574.0,0.006821
1575.0,0.006645
1576.0,0.006122
1577.0,0.005883
1578.0,0.005973
1579.0,0.005631
1580.0,0.005847
1581.0,0.005788
1582.0,0.005789
1583.0,0.005675
1584.0,0.006516
1585.0,0.006757
1586.0,0.006575
1587.0,0.006422
1588.0,0.006873
1589.0,0.006728
1590.0,0.006633
1591.0,0.006936
1592.0,0.006801
1593.0,0.007224
1594.0,0.00703
1595.0,0.007091
1596.0,0.006751
1597.0,0.006548
1598.0,0.007173
1599.0,0.00714
1600.0,0.007249
1601.0,0.006935
1602.0,0.006753
1603.0,0.007219
1604.0,0.007123
1605.0,0.007184
1606.0,0.007074
1607.0,0.007159
1608.0,0.006738
1609.0,0.006868
1610.0,0.006694
1611.0,0.00678
1612.0,0.007022
1613.0,0.006755
1614.0,0.006921
1615.0,0.006814
1616.0,0.00669
1617.0,0.006528
1618.0,0.006953
1619.0,0.006436
1620.0,0.006726
1621.0,0.006676
1622.0,0.00676
1623.0,0.006909
1624.0,0.00661
1625.0,0.006542
1626.0,0.006528
1627.0,0.0067
1628.0,0.006474
1629.0,0.006615
1630.0,0.006462
1631.0,0.005986
1632.0,0.006259
1633.0,0.005139
1634.0,0.006327
1635.0,0.00508
1636.0,0.005775
1637.0,0.006061
1638.0,0.003972
1639.0,0.005879
1640.0,0.003673
1641.0,0.005549
1642.0,0.006147
1643.0,0.00311
1644.0,0.006375
1645.0,0.004339
1646.0,0.003016
1647.0,0.006351
1648.0,0.003075
1649.0,0.005471
1650.0,0.00574
1651.0,0.002537
1652.0,0.005306
1653.0,0.005905
1654.0,0.003192
1655.0,0.005689
1656.0,0.004536
1657.0,0.005042
1658.0,0.006071
1659.0,0.005711
1660.0,0.005744
1661.0,0.00575
1662.0,0.004641
1663.0,0.005996
1664.0,0.005738
1665.0,0.003146
1666.0,0.000392
1667.0,0.003167
1668.0,0.005241
1669.0,0.005402
1670.0,0.005905
1671.0,0.005244
1672.0,0.005658
1673.0,0.005893
1674.0,0.00475
1675.0,0.005003
1676.0,0.005578
1677.0,0.00492
1678.0,0.003984
1679.0,0.005751
1680.0,0.005206
1681.0,0.00397
1682.0,0.00561
1683.0,0.005785
1684.0,0.002524
1685.0,0.005749
1686.0,0.005706
1687.0,0.004023
1688.0,0.005343
1689.0,0.005449
1690.0,0.004987
1691.0,0.002766
1692.0,0.004624
1693.0,0.00574
1694.0,0.004152
1695.0,0.005299
1696.0,0.00565
1697.0,0.001922
1698.0,0.005051
1699.0,0.005173
1700.0,0.004294
1702.0,0.00499
1705.0,0.003993
1710.0,0.003583
1715.0,0.00386
1720.0,0.004063
1725.0,0.002581
1730.0,0.003174
1735.0,0.002661
1740.0,0.002668
1745.0,0.002716
1750.0,0.001992
1755.0,0.001991
1760.0,0.001709
1765.0,0.001055
1770.0,0.0009345
1775.0,0.0005235
1780.0,0.0002711
1785.0,8.922e-05
1790.0,8.192e-05
1795.0,1.034e-05
1800.0,7.117e-06
1805.0,2.82e-06
1810.0,1.832e-06
1815.0,5.297e-07
1820.0,1.325e-07
1825.0,1.729e-07
1830.0,4.215e-10
1835.0,6.383e-10
1840.0,3.725e-12
1845.0,3.983e-10
1850.0,1.798e-10
1855.0,1.718e-11
1860.0,9.848e-10
1865.0,1.372e-09
1870.0,7.512e-15
1875.0,1.357e-14
1880.0,7.229e-09
1885.0,3.852e-09
1890.0,2.113e-08
1895.0,1.226e-08
1900.0,5.241e-11
1905.0,3.57e-11
1910.0,1.729e-09
1915.0,1.684e-09
1920.0,4.418e-08
1925.0,1.038e-07
1930.0,5.995e-08
1935.0,4.57e-07
1940.0,4.538e-07
1945.0,1.869e-06
1950.0,3.666e-06
1955.0,3.241e-06
1960.0,5.881e-06
1965.0,7.303e-05
1970.0,0.0002147
1975.0,0.0002903
1980.0,0.0001967
1985.0,0.0003383
1990.0,0.0006453
1995.0,0.000674
2000.0,0.001082
2005.0,0.0004759
2010.0,0.002263
2015.0,0.0006608
2020.0,0.00112
2025.0,0.001818
2030.0,0.001257
2035.0,0.00226
2040.0,0.001753
2045.0,0.001878
2050.0,0.002492
2055.0,0.001854
2060.0,0.001654
2065.0,0.001916
2070.0,0.001707
2075.0,0.002364
2080.0,0.002334
2085.0,0.002295
2090.0,0.002478
2095.0,0.002236
2100.0,0.001644
2105.0,0.00224
2110.0,0.001815
2115.0,0.002278
2120.0,0.001641
2125.0,0.001978
2130.0,0.002284
2135.0,0.002415
2140.0,0.002494
2145.0,0.002453
2150.0,0.001616
2155.0,0.001608
2160.0,0.001703
2165.0,0.001443
2170.0,0.001815
2175.0,0.001419
2180.0,0.00173
2185.0,0.001123
2190.0,0.001635
2195.0,0.001514
2200.0,0.0004518
2205.0,0.001034
2210.0,0.001931
2215.0,0.001433
2220.0,0.001546
2225.0,0.001339
2230.0,0.001364
2235.0,0.001175
2240.0,0.001137
2245.0,0.0007738
2250.0,0.001112
2255.0,0.0005533
2260.0,0.0004981
2265.0,0.0007478
2270.0,0.0003781
2275.0,0.0003406
2280.0,0.0007134
2285.0,0.0003463
2290.0,0.0003693
2295.0,0.0003378
2300.0,0.0001835
2305.0,0.0002158
2310.0,0.0007656
2315.0,0.0002289
2320.0,8.35e-05
2325.0,0.0004505
2330.0,0.0002816
2335.0,0.000374
2340.0,6.379e-05
2345.0,9.626e-05
2350.0,4.572e-05
2355.0,6.999e-05
2360.0,0.0001111
2365.0,0.0002378
2370.0,3.978e-06
2375.0,5.907e-05
2380.0,0.0001077
2385.0,1.747e-05
2390.0,2.782e-05
2395.0,3.954e-05
2400.0,5.3e-05
2405.0,4.781e-05
2410.0,4.566e-05
2415.0,5.707e-06
2420.0,5.024e-06
2425.0,8.686e-06
2430.0,2.903e-05
2435.0,1.144e-06
2440.0,3.403e-05
2445.0,1.97e-06
2450.0,9.441e-07
2455.0,7.974e-06
2460.0,4.077e-06
2465.0,1.759e-06
2470.0,1.036e-06
2475.0,1.015e-06
2480.0,4.76e-07
2485.0,3.053e-07
2490.0,1.756e-07
2495.0,1.519e-07
2500.0,3.768e-07
2505.0,7.663e-08
2510.0,1.128e-07
2515.0,2.387e-08
2520.0,1.341e-08
2525.0,1.53e-09
2530.0,1.065e-11
2535.0,2.355e-12
2540.0,5.588e-12
2545.0,4.333e-16
2550.0,1.757e-18
2555.0,8.433e-15
2560.0,2.531e-16
2565.0,5.666000000000001e-20
2570.0,1.6869999999999998e-24
2575.0,1.067e-34
2580.0,1.113e-28
2585.0,2.326e-42
2590.0,1.451e-38
2595.0,2.824e-40
2600.0,2.325e-35
2605.0,2.5690000000000002e-42
2610.0,8.844e-42
2615.0,1.4009999999999999e-45
2620.0,7.793e-36
2625.0,1.427e-35
2630.0,0.0
2635.0,7.431999999999999e-22
2640.0,1.6089999999999998e-22
2645.0,7.013e-25
2650.0,6.985000000000001e-26
2655.0,8.401e-35
2660.0,7.073e-32
2665.0,7.006e-45
2670.0,0.0
2675.0,3.363e-44
2680.0,1.434e-30
2685.0,1.37e-31
2690.0,5.126000000000001e-31
2695.0,2.0109999999999998e-33
2700.0,5.857999999999999e-29
2705.0,1.661e-26
2710.0,1.323e-31
2715.0,1.6699999999999999e-29
2720.0,0.0
2725.0,3.74e-27
2730.0,1.09e-24
2735.0,1.2430000000000002e-26
2740.0,2.246e-32
2745.0,2.8959999999999998e-27
2750.0,1.6230000000000002e-26
2755.0,2.612e-28
2760.0,3.913e-23
2765.0,1.836e-29
2770.0,9.025e-27
2775.0,6.784000000000001e-20
2780.0,5.187e-21
2785.0,1.9480000000000002e-20
2790.0,4.547e-18
2795.0,9.77e-19
2800.0,9.329e-15
2805.0,5.831e-17
2810.0,2.338e-13
2815.0,6.974e-14
2820.0,8.522e-16
2825.0,1.639e-11
2830.0,1.626e-10
2835.0,2.239e-15
2840.0,8.65e-12
2845.0,1.658e-09
2850.0,2.87e-11
2855.0,1.146e-11
2860.0,5.969e-10
2865.0,4.394e-09
2870.0,4.504e-10
2875.0,1.07e-08
2880.0,6.741e-09
2885.0,1.11e-08
2890.0,4.72e-09
2895.0,8.046e-08
2900.0,2.243e-08
2905.0,2.596e-09
2910.0,8.207e-08
2915.0,3.483e-08
2920.0,8.643e-08
2925.0,3.081e-08
2930.0,1.866e-07
2935.0,2.057e-07
2940.0,4.604e-08
2945.0,3.953e-08
2950.0,1.596e-07
2955.0,7.105e-08
2960.0,1.419e-07
2965.0,2.433e-07
2970.0,9.351e-09
2975.0,2.373e-08
2980.0,3.695e-08
2985.0,2.318e-07
2990.0,6.33e-07
2995.0,1.268e-07
3000.0,2.562e-07
3005.0,8.095e-08
3010.0,2.384e-07
3015.0,1.672e-07
3020.0,1.454e-08
3025.0,2.253e-07
3030.0,1.816e-07
3035.0,6.641e-08
3040.0,5.201e-08
3045.0,1.116e-07
3050.0,2.527e-08
3055.0,6.182e-09
3060.0,1.744e-07
3065.0,7.353e-08
3070.0,4.128e-08
3075.0,1.636e-07
3080.0,9.396e-08
3085.0,4.149e-08
3090.0,5.642e-08
3095.0,1.388e-08
3100.0,1.129e-07
3105.0,2.115e-08
3110.0,1.769e-08
3115.0,5.307e-08
3120.0,2.781e-07
3125.0,2.993e-07
3130.0,1.619e-07
3135.0,4.187e-07
3140.0,8.213e-08
3145.0,8.002e-08
3150.0,1.818e-07
3155.0,1.84e-07
3160.0,4.182e-07
3165.0,2.046e-06
3170.0,2.902e-06
3175.0,2.921e-07
3180.0,9.34e-07
3185.0,1.892e-07
3190.0,1.107e-07
3195.0,5.475e-08
3200.0,7.727e-09
3205.0,5.048e-09
3210.0,2.103e-09
3215.0,8.549e-09
3220.0,3.001e-08
3225.0,3.452e-09
3230.0,5.733e-09
3235.0,1.618e-07
3240.0,7.304e-08
3245.0,1.39e-08
3250.0,5.114e-08
3255.0,2.302e-07
3260.0,2.189e-08
3265.0,4.736e-08
3270.0,2.23e-08
3275.0,1.358e-07
3280.0,5.722e-08
3285.0,4.901e-07
3290.0,1.975e-07
3295.0,2.317e-08
3300.0,3.406e-08
3305.0,7.826e-08
3310.0,7.427e-08
3315.0,1.076e-10
3320.0,6.782e-10
3325.0,6.237e-08
3330.0,1.386e-07
3335.0,2.614e-07
3340.0,4.817e-07
3345.0,6.574e-08
3350.0,4.44e-07
3355.0,6.796e-08
3360.0,1.191e-07
3365.0,6.964e-07
3370.0,6.963e-08
3375.0,2.807e-06
3380.0,9.246e-08
3385.0,1.787e-06
3390.0,6.825e-07
3395.0,2.593e-06
3400.0,2.824e-05
3405.0,7.688e-08
3410.0,3.085e-06
3415.0,1.639e-07
3420.0,6.018e-05
3425.0,1.513e-06
3430.0,3.129e-07
3435.0,4.481e-05
3440.0,2.389e-07
3445.0,2.433e-05
3450.0,8.012e-06
3455.0,1.169e-06
3460.0,7.392e-05
3465.0,1.57e-06
3470.0,6.72e-05
3475.0,1.117e-05
3480.0,1.285e-05
3485.0,5.63e-05
3490.0,7.556e-06
3495.0,5.709e-05
3500.0,5.01e-05
3505.0,4.851e-05
3510.0,5.244e-05
3515.0,5.121e-05
3520.0,7.717e-05
3525.0,7.798e-05
3530.0,4.143e-05
3535.0,7.094e-06
3540.0,5.363e-06
3545.0,5.645e-06
3550.0,3.769e-05
3555.0,1.08e-05
3560.0,5.454e-05
3565.0,3.112e-05
3570.0,9.44e-06
3575.0,5.13e-06
3580.0,3.066e-05
3585.0,9.444e-06
3590.0,2.225e-05
3595.0,5.084e-05
3600.0,6.821e-05
3605.0,3.369e-05
3610.0,2.536e-05
3615.0,5.353e-05
3620.0,0.0001531
3625.0,4.282e-05
3630.0,6.059e-05
3635.0,7.119e-05
3640.0,0.0001679
3645.0,5.318e-05
3650.0,6.177e-05
3655.0,0.0001212
3660.0,0.0001439
3665.0,4.282e-05
3670.0,2.146e-05
3675.0,1.039e-06
3680.0,1.539e-05
3685.0,3.591e-05
3690.0,2.959e-05
3695.0,8.92e-05
3700.0,0.000176
3705.0,0.0001571
3710.0,5.068e-05
3715.0,7.398e-05
3720.0,0.0001334
3725.0,0.0001512
3730.0,7.132e-05
3735.0,3.918e-05
3740.0,6.702e-05
3745.0,0.0001407
3750.0,8.916e-05
3755.0,7.012e-05
3760.0,4.733e-05
3765.0,4.913e-05
3770.0,7.723e-05
3775.0,7.819e-05
3780.0,0.0001138
3785.0,6.99e-05
3790.0,3.393e-05
3795.0,8.81e-05
3800.0,0.0001482
3805.0,0.0001115
3810.0,5.397e-05
3815.0,4.629e-05
3820.0,0.0001447
3825.0,0.0001446
3830.0,0.0001502
3835.0,3.585e-05
3840.0,9.016e-05
3845.0,6.461e-05
3850.0,6.641e-05
3855.0,5.217e-05
3860.0,1.988e-05
3865.0,1.909e-05
3870.0,5.659e-06
3875.0,1.903e-06
3880.0,1.116e-06
3885.0,1.766e-06
3890.0,2.199e-06
3895.0,7.44e-06
3900.0,2.405e-05
3905.0,1.991e-05
3910.0,4.352e-06
3915.0,3.357e-06
3920.0,3.577e-06
3925.0,3.225e-06
3930.0,4.817e-06
3935.0,9.004e-06
3940.0,1.1e-05
3945.0,1.508e-05
3950.0,2.08e-05
3955.0,2.505e-05
3960.0,2.921e-05
3965.0,3.309e-05
3970.0,2.968e-05
3975.0,2.18e-05
3980.0,1.915e-05
3985.0,2.184e-05
3990.0,1.945e-05
3995.0,1.532e-05
4000.0,1.202e-05
