interpolation:linear
wavelength,value
280.0,2.726e-23
280.5,9.478e-22
281.0,5.167e-21
281.5,1.733e-19
282.0,1.423e-18
282.5,4.656e-18
283.0,1.378e-17
283.5,2.201e-17
284.0,3.588e-16
284.5,1.051e-15
285.0,8.471e-16
285.5,4.442e-15
286.0,1.81e-14
286.5,8.38e-14
287.0,2.442e-13
287.5,9.623e-13
288.0,8.428e-12
288.5,1.959e-11
289.0,4.545e-11
289.5,1.257e-10
290.0,3.32e-10
290.5,6.537e-10
291.0,1.36e-09
291.5,3.801e-09
292.0,7.226e-09
292.5,9.663e-09
293.0,1.969e-08
293.5,4.536e-08
294.0,6.794e-08
294.5,1.366e-08
295.0,2.296e-08
295.5,3.543e-08
296.0,6.232e-08
296.5,7.955e-08
297.0,9.985e-08
297.5,2.393e-07
298.0,3.422e-07
298.5,3.192e-07
299.0,6.537e-07
299.5,9.521e-07
300.0,9.728e-07
300.5,1.306e-06
301.0,2.092e-06
301.5,2.983e-06
302.0,2.411e-06
302.5,3.312e-06
303.0,5.92e-06
303.5,7.411e-06
304.0,6.914e-06
304.5,1.025e-05
305.0,1.578e-05
305.5,1.85e-05
306.0,1.811e-05
306.5,2.307e-05
307.0,3.642e-05
307.5,5.218e-05
308.0,5.587e-05
308.5,6.888e-05
309.0,6.149e-05
309.5,7.013e-05
310.0,7.142e-05
310.5,0.0001168
311.0,0.0001497
311.5,0.000146
312.0,0.0001558
312.5,0.0002001
313.0,0.0002241
313.5,0.0002113
314.0,0.0002851
314.5,0.0002846
315.0,0.0003854
315.5,0.0003011
316.0,0.0002997
316.5,0.0004936
317.0,0.0006114
317.5,0.0006115
318.0,0.0005249
318.5,0.0007883
319.0,0.001033
319.5,0.0007185
320.0,0.000848
320.5,0.001296
321.0,0.001395
321.5,0.001364
322.0,0.001186
322.5,0.001042
323.0,0.001184
323.5,0.002962
324.0,0.003597
324.5,0.003298
325.0,0.001526
325.5,0.002193
326.0,0.005105
326.5,0.005817
327.0,0.005515
327.5,0.005019
328.0,0.003758
328.5,0.004864
329.0,0.007008
329.5,0.00844
330.0,0.008114
330.5,0.005585
331.0,0.005455
331.5,0.006132
332.0,0.007795
332.5,0.008281
333.0,0.007924
333.5,0.006369
334.0,0.006394
334.5,0.008444
335.0,0.008559
335.5,0.01064
336.0,0.007363
336.5,0.007802
337.0,0.006054
337.5,0.007374
338.0,0.008027
338.5,0.01
339.0,0.00998
339.5,0.009552
340.0,0.01042
340.5,0.009495
341.0,0.009908
341.5,0.009227
342.0,0.01107
342.5,0.0104
343.0,0.01134
343.5,0.01061
344.0,0.007322
344.5,0.007836
345.0,0.01054
345.5,0.01084
346.0,0.009258
346.5,0.01052
347.0,0.01121
347.5,0.009038
348.0,0.0104
348.5,0.01045
349.0,0.00972
349.5,0.009615
350.0,0.0119
350.5,0.01256
351.0,0.01117
351.5,0.01073
352.0,0.01161
352.5,0.009115
353.0,0.01152
353.5,0.01235
354.0,0.01285
354.5,0.01303
355.0,0.01297
355.5,0.01173
356.0,0.01229
356.5,0.0105
357.0,0.008674
357.5,0.01063
358.0,0.00843
358.5,0.007209
359.0,0.01007
359.5,0.0128
360.0,0.01358
360.5,0.01088
361.0,0.009928
361.5,0.01144
362.0,0.009903
362.5,0.01371
363.0,0.01232
363.5,0.01135
364.0,0.01388
364.5,0.01187
365.0,0.01208
365.5,0.01517
366.0,0.01608
366.5,0.01512
367.0,0.01473
367.5,0.01529
368.0,0.01338
368.5,0.0135
369.0,0.01458
369.5,0.01555
370.0,0.01658
370.5,0.01287
371.0,0.01376
371.5,0.01722
372.0,0.01143
372.5,0.01371
373.0,0.01395
373.5,0.009076
374.0,0.01319
374.5,0.01093
375.0,0.01062
375.5,0.01586
376.0,0.01315
376.5,0.01363
377.0,0.01444
377.5,0.0169
378.0,0.01832
378.5,0.01732
379.0,0.0143
379.5,0.01306
380.0,0.01358
380.5,0.01645
381.0,0.01649
381.5,0.01307
382.0,0.01161
382.5,0.009903
383.0,0.00917
383.5,0.008835
384.0,0.009748
384.5,0.01434
385.0,0.01422
385.5,0.01325
386.0,0.01135
386.5,0.01491
387.0,0.01239
387.5,0.01392
388.0,0.01286
388.5,0.01271
389.0,0.01373
389.5,0.01663
390.0,0.01669
390.5,0.01536
391.0,0.01809
391.5,0.01845
392.0,0.01555
392.5,0.01392
393.0,0.007748
393.5,0.005633
394.0,0.01147
394.5,0.01458
395.0,0.01779
395.5,0.01808
396.0,0.01568
396.5,0.009169
397.0,0.006883
397.5,0.014
398.0,0.01961
398.5,0.02028
399.0,0.02196
399.5,0.02189
400.0,0.02274
401.0,0.02246
402.0,0.0237
403.0,0.02252
404.0,0.02219
405.0,0.02219
406.0,0.02183
407.0,0.02148
408.0,0.02231
409.0,0.02387
410.0,0.02087
411.0,0.02261
412.0,0.0243
413.0,0.02371
414.0,0.02401
415.0,0.02406
416.0,0.02448
417.0,0.02388
418.0,0.02344
419.0,0.02376
420.0,0.02367
421.0,0.02475
422.0,0.02352
423.0,0.02295
424.0,0.02425
425.0,0.0242
426.0,0.02358
427.0,0.02316
428.0,0.02258
429.0,0.02141
430.0,0.01874
431.0,0.01857
432.0,0.02396
433.0,0.02408
434.0,0.02237
435.0,0.02338
436.0,0.02636
437.0,0.026
438.0,0.02365
439.0,0.02441
440.0,0.02515
441.0,0.02601
442.0,0.02786
443.0,0.02713
444.0,0.02776
445.0,0.02721
446.0,0.02603
447.0,0.02818
448.0,0.0286
449.0,0.02868
450.0,0.02945
451.0,0.03054
452.0,0.02945
453.0,0.02773
454.0,0.02897
455.0,0.02911
456.0,0.02977
457.0,0.03018
458.0,0.02905
459.0,0.02879
460.0,0.02877
461.0,0.02938
462.0,0.02963
463.0,0.02949
464.0,0.02912
465.0,0.02887
466.0,0.02921
467.0,0.02866
468.0,0.02894
469.0,0.02902
470.0,0.02806
471.0,0.02804
472.0,0.02956
473.0,0.02919
474.0,0.02919
475.0,0.02934
476.0,0.02829
477.0,0.02821
478.0,0.02887
479.0,0.02858
480.0,0.02853
481.0,0.02899
482.0,0.02915
483.0,0.02888
484.0,0.02839
485.0,0.02718
486.0,0.02388
487.0,0.0251
488.0,0.02755
489.0,0.02759
490.0,0.029
491.0,0.02848
492.0,0.02689
493.0,0.02779
494.0,0.02809
495.0,0.02834
496.0,0.02848
497.0,0.02884
498.0,0.02736
499.0,0.02754
500.0,0.02657
501.0,0.0259
502.0,0.02528
503.0,0.02608
504.0,0.02508
505.0,0.02615
506.0,0.02701
507.0,0.02575
508.0,0.02508
509.0,0.02593
510.0,0.02592
511.0,0.02672
512.0,0.02706
513.0,0.0256
514.0,0.02541
515.0,0.02512
516.0,0.02502
517.0,0.02223
518.0,0.02335
519.0,0.02447
520.0,0.02531
521.0,0.02549
522.0,0.02542
523.0,0.0249
524.0,0.02561
525.0,0.02572
526.0,0.02446
527.0,0.02287
528.0,0.02406
529.0,0.02522
530.0,0.02474
531.0,0.02501
532.0,0.02409
533.0,0.02337
534.0,0.02411
535.0,0.02472
536.0,0.02503
537.0,0.02411
538.0,0.02455
539.0,0.02432
540.0,0.02323
541.0,0.02316
542.0,0.02381
543.0,0.02365
544.0,0.02389
545.0,0.02382
546.0,0.02379
547.0,0.02389
548.0,0.02369
549.0,0.02379
550.0,0.02407
551.0,0.0238
552.0,0.02398
553.0,0.02352
554.0,0.02406
555.0,0.02407
556.0,0.0237
557.0,0.02288
558.0,0.02258
559.0,0.02203
560.0,0.02217
561.0,0.02231
562.0,0.02199
563.0,0.02243
564.0,0.02168
565.0,0.02137
566.0,0.02095
567.0,0.02117
568.0,0.0206
569.0,0.01971
570.0,0.01966
571.0,0.01956
572.0,0.0197
573.0,0.01981
574.0,0.01961
575.0,0.01912
576.0,0.01893
577.0,0.01918
578.0,0.01907
579.0,0.01945
580.0,0.0203
581.0,0.02082
582.0,0.02154
583.0,0.02188
584.0,0.02226
585.0,0.02185
586.0,0.02146
587.0,0.02176
588.0,0.02072
589.0,0.01703
590.0,0.0177
591.0,0.01966
592.0,0.0188
593.0,0.01965
594.0,0.01935
595.0,0.0183
596.0,0.02034
597.0,0.01947
598.0,0.01985
599.0,0.02003
600.0,0.0202
601.0,0.02025
602.0,0.0202
603.0,0.02073
604.0,0.02123
605.0,0.02127
606.0,0.0213
607.0,0.02165
608.0,0.02157
609.0,0.02179
610.0,0.02181
611.0,0.0221
612.0,0.02219
613.0,0.02208
614.0,0.02193
615.0,0.02255
616.0,0.02192
617.0,0.02197
618.0,0.02292
619.0,0.02276
620.0,0.02295
621.0,0.02301
622.0,0.02277
623.0,0.02242
624.0,0.02198
625.0,0.02186
626.0,0.02207
627.0,0.02195
628.0,0.01629
629.0,0.01968
630.0,0.01906
631.0,0.0209
632.0,0.02105
633.0,0.02233
634.0,0.02272
635.0,0.02345
636.0,0.02347
637.0,0.02419
638.0,0.0249
639.0,0.02489
640.0,0.025
641.0,0.02523
642.0,0.02544
643.0,0.02589
644.0,0.02608
645.0,0.02589
646.0,0.0248
647.0,0.02273
648.0,0.02324
649.0,0.02219
650.0,0.02455
651.0,0.0261
652.0,0.02324
653.0,0.02605
654.0,0.02593
655.0,0.02386
656.0,0.02178
657.0,0.02274
658.0,0.02604
659.0,0.02675
660.0,0.02703
661.0,0.02786
662.0,0.02846
663.0,0.02799
664.0,0.0284
665.0,0.02855
666.0,0.02877
667.0,0.0289
668.0,0.0292
669.0,0.02975
670.0,0.02979
671.0,0.02994
672.0,0.02983
673.0,0.03044
674.0,0.03046
675.0,0.03032
676.0,0.03067
677.0,0.0305
678.0,0.03071
679.0,0.03034
680.0,0.03067
681.0,0.03049
682.0,0.0305
683.0,0.03044
684.0,0.03023
685.0,0.03074
686.0,0.03028
687.0,0.007884
688.0,0.01014
689.0,0.01023
690.0,0.01164
691.0,0.01421
692.0,0.01745
693.0,0.01793
694.0,0.01933
695.0,0.02305
696.0,0.02329
697.0,0.02925
698.0,0.028
699.0,0.02435
700.0,0.02414
701.0,0.02258
702.0,0.02341
703.0,0.02475
704.0,0.0274
705.0,0.02687
706.0,0.0275
707.0,0.02785
708.0,0.02803
709.0,0.02941
710.0,0.02803
711.0,0.02871
712.0,0.02967
713.0,0.02817
714.0,0.02908
715.0,0.02687
716.0,0.02608
717.0,0.01462
718.0,0.01373
719.0,0.01261
720.0,0.01208
721.0,0.01647
722.0,0.02225
723.0,0.01932
724.0,0.01538
725.0,0.0145
726.0,0.01457
727.0,0.01739
728.0,0.01358
729.0,0.01634
730.0,0.01635
731.0,0.01512
732.0,0.01924
733.0,0.02289
734.0,0.02494
735.0,0.02393
736.0,0.02282
737.0,0.02342
738.0,0.02738
739.0,0.02692
740.0,0.02873
741.0,0.02901
742.0,0.02982
743.0,0.03067
744.0,0.03097
745.0,0.03157
746.0,0.03173
747.0,0.03196
748.0,0.03196
749.0,0.03167
750.0,0.03169
751.0,0.03138
752.0,0.03159
753.0,0.03183
754.0,0.03187
755.0,0.03163
756.0,0.03173
757.0,0.03174
758.0,0.03121
759.0,0.02697
760.0,0.001411
761.0,0.0007525
762.0,0.004146
763.0,0.002103
764.0,0.003111
765.0,0.0041
766.0,0.005162
767.0,0.008115
768.0,0.0162
769.0,0.01992
770.0,0.02591
771.0,0.02912
772.0,0.03023
773.0,0.03073
774.0,0.03083
775.0,0.0308
776.0,0.03128
777.0,0.03092
778.0,0.03071
779.0,0.03075
780.0,0.03065
781.0,0.03073
782.0,0.03098
783.0,0.03052
784.0,0.03078
785.0,0.03035
786.0,0.03036
787.0,0.02743
788.0,0.02653
789.0,0.02652
790.0,0.02369
791.0,0.02587
792.0,0.0262
793.0,0.02556
794.0,0.02874
795.0,0.02857
796.0,0.02354
797.0,0.02388
798.0,0.02812
799.0,0.02731
800.0,0.02535
801.0,0.02458
802.0,0.02418
803.0,0.02297
804.0,0.02388
805.0,0.02505
806.0,0.02815
807.0,0.02751
808.0,0.02715
809.0,0.0247
810.0,0.02437
811.0,0.02174
812.0,0.01936
813.0,0.01863
814.0,0.01294
815.0,0.01316
816.0,0.01251
817.0,0.01244
818.0,0.01174
819.0,0.01418
820.0,0.01436
821.0,0.02048
822.0,0.01825
823.0,0.0065
824.0,0.01588
825.0,0.02181
826.0,0.01697
827.0,0.02067
828.0,0.01197
829.0,0.01843
830.0,0.01809
831.0,0.01764
832.0,0.01631
833.0,0.01894
834.0,0.01773
835.0,0.02375
836.0,0.01962
837.0,0.02351
838.0,0.02124
839.0,0.02353
840.0,0.02481
841.0,0.02336
842.0,0.02478
843.0,0.027
844.0,0.0258
845.0,0.02747
846.0,0.02808
847.0,0.02796
848.0,0.02695
849.0,0.0263
850.0,0.02508
851.0,0.02567
852.0,0.02617
853.0,0.02573
854.0,0.02176
855.0,0.02455
856.0,0.02661
857.0,0.02776
858.0,0.02732
859.0,0.02788
860.0,0.02819
861.0,0.02794
862.0,0.02853
863.0,0.02918
864.0,0.02781
865.0,0.02766
866.0,0.02487
867.0,0.02598
868.0,0.02831
869.0,0.02778
870.0,0.02861
871.0,0.02819
872.0,0.02817
873.0,0.02813
874.0,0.02781
875.0,0.02719
876.0,0.02744
877.0,0.02774
878.0,0.02795
879.0,0.02754
880.0,0.02692
881.0,0.02612
882.0,0.02637
883.0,0.02697
884.0,0.02663
885.0,0.02664
886.0,0.02414
887.0,0.02563
888.0,0.02529
889.0,0.02683
890.0,0.02515
891.0,0.02592
892.0,0.02281
893.0,0.02125
894.0,0.01729
895.0,0.01351
896.0,0.01174
897.0,0.008658
898.0,0.009751
899.0,0.005331
900.0,0.01026
901.0,0.005724
902.0,0.007212
903.0,0.007637
904.0,0.01584
905.0,0.01439
906.0,0.01272
907.0,0.006739
908.0,0.008174
909.0,0.008741
910.0,0.0057
911.0,0.008386
912.0,0.009625
913.0,0.005854
914.0,0.007396
915.0,0.006122
916.0,0.005901
917.0,0.008453
918.0,0.005508
919.0,0.009137
920.0,0.01267
921.0,0.01235
922.0,0.009144
923.0,0.01221
924.0,0.008533
925.0,0.007943
926.0,0.008115
927.0,0.01007
928.0,0.003532
929.0,0.002704
930.0,0.001555
931.0,0.001409
932.0,0.0009453
933.0,0.0007508
934.0,0.0004044
935.0,0.0007628
936.0,0.0004703
937.0,0.0004747
938.0,0.0005818
939.0,0.001328
940.0,0.001757
941.0,0.001155
942.0,0.001363
943.0,0.0008431
944.0,0.0009277
945.0,0.001189
946.0,0.0005594
947.0,0.001164
948.0,0.0008578
949.0,0.001703
950.0,0.000404
951.0,0.001655
952.0,0.0008318
953.0,0.001099
954.0,0.001399
955.0,0.001264
956.0,0.001449
957.0,0.0008311
958.0,0.00224
959.0,0.001393
960.0,0.00167
961.0,0.00224
962.0,0.002108
963.0,0.003226
964.0,0.002749
965.0,0.002793
966.0,0.003386
967.0,0.003406
968.0,0.01115
969.0,0.008579
970.0,0.008756
971.0,0.01204
972.0,0.01108
973.0,0.006123
974.0,0.005888
975.0,0.006993
976.0,0.005462
977.0,0.01062
978.0,0.007289
979.0,0.008584
980.0,0.008167
981.0,0.0126
982.0,0.01119
983.0,0.009844
984.0,0.01608
985.0,0.01048
986.0,0.01928
987.0,0.01604
988.0,0.01709
989.0,0.02081
990.0,0.01576
991.0,0.02073
992.0,0.02111
993.0,0.01802
994.0,0.02151
995.0,0.02204
996.0,0.02141
997.0,0.02162
998.0,0.02131
999.0,0.02141
1000.0,0.0207
1001.0,0.02167
1002.0,0.01771
1003.0,0.0212
1004.0,0.01954
1005.0,0.02001
1006.0,0.02064
1007.0,0.02102
1008.0,0.02053
1009.0,0.01987
1010.0,0.01965
1011.0,0.02087
1012.0,0.02047
1013.0,0.02116
1014.0,0.02101
1015.0,0.02084
1016.0,0.02061
1017.0,0.02046
1018.0,0.02087
1019.0,0.01906
1020.0,0.0206
1021.0,0.02078
1022.0,0.02015
1023.0,0.02047
1024.0,0.01899
1025.0,0.0207
1026.0,0.02015
1027.0,0.02041
1028.0,0.02023
1029.0,0.0197
1030.0,0.02031
1031.0,0.02015
1032.0,0.02012
1033.0,0.01989
1034.0,0.01988
1035.0,0.01996
1036.0,0.01983
1037.0,0.01961
1038.0,0.01963
1039.0,0.0195
1040.0,0.01939
1041.0,0.01931
1042.0,0.01916
1043.0,0.01902
1044.0,0.01898
1045.0,0.01862
1046.0,0.01832
1047.0,0.01836
1048.0,0.01833
1049.0,0.01814
1050.0,0.01791
1051.0,0.01772
1052.0,0.01749
1053.0,0.01715
1054.0,0.01698
1055.0,0.01675
1056.0,0.01642
1057.0,0.01618
1058.0,0.01558
1059.0,0.01535
1060.0,0.01522
1061.0,0.01506
1062.0,0.01497
1063.0,0.0146
1064.0,0.01484
1065.0,0.01421
1066.0,0.01432
1067.0,0.01443
1068.0,0.01378
1069.0,0.01373
1070.0,0.0142
1071.0,0.01511
1072.0,0.01442
1073.0,0.01423
1074.0,0.01574
1075.0,0.01285
1076.0,0.01572
1077.0,0.01444
1078.0,0.0132
1079.0,0.0161
1080.0,0.01383
1081.0,0.01239
1082.0,0.01468
1083.0,0.01518
1084.0,0.01217
1085.0,0.01424
1086.0,0.01072
1087.0,0.0123
1088.0,0.01499
1089.0,0.01193
1090.0,0.01111
1091.0,0.01398
1092.0,0.01423
1093.0,0.007954
1094.0,0.0123
1095.0,0.007864
1096.0,0.006718
1097.0,0.0141
1098.0,0.006563
1099.0,0.006542
1100.0,0.004845
1101.0,0.005762
1102.0,0.004678
1103.0,0.00379
1104.0,0.004359
1105.0,0.005246
1106.0,0.001889
1107.0,0.005021
1108.0,0.002375
1109.0,0.002336
1110.0,0.003481
1111.0,0.0009657
1112.0,0.002533
1113.0,0.0006308
1114.0,0.0006827
1115.0,0.0005101
1116.0,0.0003268
1117.0,0.0001146
1118.0,0.0003571
1119.0,0.0001692
1120.0,0.0002118
1121.0,0.0002812
1122.0,0.0001163
1123.0,0.0001894
1124.0,0.0001593
1125.0,0.000208
1126.0,7.051e-05
1127.0,0.0002329
1128.0,0.0001371
1129.0,0.0001452
1130.0,9.463e-05
1131.0,0.0004485
1132.0,0.0003475
1133.0,0.0002145
1134.0,5.338e-05
1135.0,2e-05
1136.0,0.0001762
1137.0,0.0004287
1138.0,0.000299
1139.0,0.000519
1140.0,0.000392
1141.0,0.0002831
1142.0,0.0003296
1143.0,0.0004939
1144.0,0.000158
1145.0,0.0001985
1146.0,0.0002134
1147.0,7.336e-05
1148.0,0.0004138
1149.0,0.0003144
1150.0,0.0001695
1151.0,0.0002863
1152.0,0.0003648
1153.0,0.0003808
1154.0,0.0001888
1155.0,0.0005498
1156.0,0.000482
1157.0,0.0007696
1158.0,0.0007542
1159.0,0.0008365
1160.0,0.000833
1161.0,0.001808
1162.0,0.001966
1163.0,0.004658
1164.0,0.003354
1165.0,0.002198
1166.0,0.003256
1167.0,0.003712
1168.0,0.003999
1169.0,0.004581
1170.0,0.006181
1171.0,0.005169
1172.0,0.007191
1173.0,0.005606
1174.0,0.00217
1175.0,0.006672
1176.0,0.01043
1177.0,0.00795
1178.0,0.003773
1179.0,0.009992
1180.0,0.006994
1181.0,0.006207
1182.0,0.001994
1183.0,0.00666
1184.0,0.005934
1185.0,0.004623
1186.0,0.008161
1187.0,0.00602
1188.0,0.001832
1189.0,0.005823
1190.0,0.008451
1191.0,0.005799
1192.0,0.008946
1193.0,0.008235
1194.0,0.008434
1195.0,0.006321
1196.0,0.005135
1197.0,0.008727
1198.0,0.00799
1199.0,0.003512
1200.0,0.00743
1201.0,0.005542
1202.0,0.007568
1203.0,0.005843
1204.0,0.005469
1205.0,0.008924
1206.0,0.01134
1207.0,0.0068
1208.0,0.007732
1209.0,0.007771
1210.0,0.009622
1211.0,0.008131
1212.0,0.005391
1213.0,0.009574
1214.0,0.006252
1215.0,0.005815
1216.0,0.01032
1217.0,0.009197
1218.0,0.0102
1219.0,0.009495
1220.0,0.0101
1221.0,0.0113
1222.0,0.01026
1223.0,0.00987
1224.0,0.008875
1225.0,0.01033
1226.0,0.0116
1227.0,0.007912
1228.0,0.01243
1229.0,0.01138
1230.0,0.01089
1231.0,0.01301
1232.0,0.01289
1233.0,0.009489
1234.0,0.01383
1235.0,0.01306
1236.0,0.01371
1237.0,0.01225
1238.0,0.01367
1239.0,0.01349
1240.0,0.01375
1241.0,0.0128
1242.0,0.01351
1243.0,0.01349
1244.0,0.0132
1245.0,0.01349
1246.0,0.01347
1247.0,0.01306
1248.0,0.01259
1249.0,0.01304
1250.0,0.01261
1251.0,0.01177
1252.0,0.01266
1253.0,0.01102
1254.0,0.01002
1255.0,0.01229
1256.0,0.009321
1257.0,0.008791
1258.0,0.01086
1259.0,0.007122
1260.0,0.007525
1261.0,0.00434
1262.0,0.003225
1263.0,0.003214
1264.0,0.00161
1265.0,0.003194
1266.0,0.002161
1267.0,0.002809
1268.0,0.001794
1269.0,0.0002401
1270.0,0.002523
1271.0,0.004715
1272.0,0.004829
1273.0,0.004516
1274.0,0.005021
1275.0,0.005419
1276.0,0.006116
1277.0,0.007117
1278.0,0.008482
1279.0,0.00862
1280.0,0.00862
1281.0,0.00907
1282.0,0.009914
1283.0,0.01037
1284.0,0.01066
1285.0,0.01101
1286.0,0.01166
1287.0,0.01055
1288.0,0.01101
1289.0,0.008092
1290.0,0.01084
1291.0,0.01153
1292.0,0.007092
1293.0,0.01063
1294.0,0.01019
1295.0,0.008178
1296.0,0.006643
1297.0,0.005531
1298.0,0.007826
1299.0,0.01033
1300.0,0.004693
1301.0,0.004681
1302.0,0.007891
1303.0,0.005367
1304.0,0.002141
1305.0,0.007132
1306.0,0.006144
1307.0,0.002792
1308.0,0.004909
1309.0,0.005454
1310.0,0.002629
1311.0,0.004694
1312.0,0.004189
1313.0,0.002935
1314.0,0.001564
1315.0,0.001508
1316.0,0.004001
1317.0,0.003771
1318.0,0.004788
1319.0,0.001567
1320.0,0.001314
1321.0,0.002404
1322.0,0.001662
1323.0,0.0005335
1324.0,0.001595
1325.0,0.002597
1326.0,0.001696
1327.0,0.001298
1328.0,0.0005938
1329.0,0.0002024
1330.0,0.0003732
1331.0,0.0001344
1332.0,0.0001294
1333.0,0.0001997
1334.0,0.0002906
1335.0,0.0003462
1336.0,0.0002043
1337.0,0.0001961
1338.0,0.0001941
1339.0,0.0001896
1340.0,0.0002005
1341.0,0.0001468
1342.0,0.0001604
1343.0,9.588e-05
1344.0,5.724e-05
1345.0,8.16e-05
1346.0,4.02e-05
1347.0,4.073e-05
1348.0,2.626e-06
1349.0,9.42e-06
1350.0,9.765e-06
1351.0,2.361e-06
1352.0,6.35e-07
1353.0,3.232e-08
1354.0,1.111e-07
1355.0,8.945e-10
1356.0,1.566e-08
1357.0,2.379e-08
1358.0,1.05e-09
1359.0,1.323e-10
1360.0,4.783e-10
1361.0,5.35e-13
1362.0,1.464e-15
1363.0,6.432e-10
1364.0,2.655e-10
1365.0,5.111e-16
1366.0,2.788e-09
1367.0,1.138e-09
1368.0,3.947e-18
1369.0,9.787e-11
1370.0,4.82e-11
1371.0,2.733e-12
1372.0,6.173e-10
1373.0,1.244e-08
1374.0,5.769e-08
1375.0,1.046e-07
1376.0,9.385e-08
1377.0,4.287e-08
1378.0,4.192e-07
1379.0,1.791e-08
1380.0,2.574e-08
1381.0,6.706e-10
1382.0,5.413e-10
1383.0,8.093e-12
1384.0,1.061e-10
1385.0,5.075e-10
1386.0,4.774e-10
1387.0,5.774e-08
1388.0,1.136e-09
1389.0,1.95e-07
1390.0,1.673e-07
1391.0,1.113e-07
1392.0,7.215e-09
1393.0,3.822e-08
1394.0,1.97e-08
1395.0,1.444e-10
1396.0,6.978e-13
1397.0,1.505e-08
1398.0,4.451e-07
1399.0,2.815e-07
1400.0,2.984e-13
1401.0,1.238e-12
1402.0,7.8e-07
1403.0,9.77e-07
1404.0,2.968e-07
1405.0,6.839e-11
1406.0,7.673e-07
1407.0,6.763e-08
1408.0,6.243e-07
1409.0,2.081e-07
1410.0,1.666e-07
1411.0,8.404e-07
1412.0,1.134e-06
1413.0,1.18e-05
1414.0,1.301e-07
1415.0,6.214e-08
1416.0,1.951e-05
1417.0,5.76e-06
1418.0,6.523e-06
1419.0,1.004e-06
1420.0,3.964e-06
1421.0,4.276e-06
1422.0,2.508e-05
1423.0,4.81e-06
1424.0,9.03e-06
1425.0,1.319e-05
1426.0,1.51e-05
1427.0,2.808e-05
1428.0,1.965e-06
1429.0,2.068e-05
1430.0,3.57e-05
1431.0,3.924e-05
1432.0,1.527e-06
1433.0,2.461e-05
1434.0,1.238e-05
1435.0,1.2e-05
1436.0,2.364e-05
1437.0,1.807e-05
1438.0,7.459e-06
1439.0,3.213e-05
1440.0,2.399e-05
1441.0,1.794e-05
1442.0,1.987e-05
1443.0,2.535e-05
1444.0,3.532e-05
1445.0,2.712e-05
1446.0,1.203e-05
1447.0,1.896e-05
1448.0,6.74e-05
1449.0,5.787e-05
1450.0,1.398e-05
1451.0,5.502e-06
1452.0,3.397e-05
1453.0,4.48e-05
1454.0,8.174e-05
1455.0,3.636e-05
1456.0,4.849e-05
1457.0,6.675e-05
1458.0,8.928e-05
1459.0,0.0001056
1460.0,4.969e-05
1461.0,4.893e-05
1462.0,7.561e-05
1463.0,2.302e-05
1464.0,9.438e-05
1465.0,5.524e-05
1466.0,3.432e-05
1467.0,1.755e-05
1468.0,4.066e-05
1469.0,5.061e-05
1470.0,2.42e-05
1471.0,8.588e-06
1472.0,2.3e-05
1473.0,3.577e-05
1474.0,5.574e-05
1475.0,0.0001237
1476.0,3.593e-05
1477.0,3.557e-05
1478.0,3.389e-05
1479.0,6.908e-05
1480.0,3.048e-05
1481.0,6.225e-05
1482.0,3.025e-05
1483.0,9.139e-05
1484.0,0.0001089
1485.0,8.12e-05
1486.0,6.799e-05
1487.0,2.901e-05
1488.0,6.103e-05
1489.0,0.0002007
1490.0,0.0003594
1491.0,0.0004286
1492.0,0.0001397
1493.0,0.0003483
1494.0,0.0008545
1495.0,0.0004516
1496.0,0.000315
1497.0,0.00177
1498.0,0.0009303
1499.0,0.001134
1500.0,0.003176
1501.0,0.003031
1502.0,0.002461
1503.0,0.001061
1504.0,0.000258
1505.0,0.001058
1506.0,0.003857
1507.0,0.003525
1508.0,0.003322
1509.0,0.001252
1510.0,0.004652
1511.0,0.003463
1512.0,0.004796
1513.0,0.002566
1514.0,0.0021
1515.0,0.00537
1516.0,0.004662
1517.0,0.003218
1518.0,0.004081
1519.0,0.002962
1520.0,0.004238
1521.0,0.007582
1522.0,0.005309
1523.0,0.007929
1524.0,0.006286
1525.0,0.004495
1526.0,0.004393
1527.0,0.005412
1528.0,0.007317
1529.0,0.006385
1530.0,0.004992
1531.0,0.00603
1532.0,0.008072
1533.0,0.008513
1534.0,0.008354
1535.0,0.007639
1536.0,0.008105
1537.0,0.007657
1538.0,0.008432
1539.0,0.00794
1540.0,0.008441
1541.0,0.008265
1542.0,0.007812
1543.0,0.008427
1544.0,0.008064
1545.0,0.008689
1546.0,0.007872
1547.0,0.008268
1548.0,0.008304
1549.0,0.008704
1550.0,0.008467
1551.0,0.008308
1552.0,0.008055
1553.0,0.008457
1554.0,0.008178
1555.0,0.008435
1556.0,0.008304
1557.0,0.008504
1558.0,0.008467
1559.0,0.008372
1560.0,0.008348
1561.0,0.008444
1562.0,0.008112
1563.0,0.008069
1564.0,0.008022
1565.0,0.008425
1566.0,0.008088
1567.0,0.008198
1568.0,0.008001
1569.0,0.008347
1570.0,0.008331
1571.0,0.008332
1572.0,0.008291
1573.0,0.008076
1574.0,0.007622
1575.0,0.007427
1576.0,0.006874
1577.0,0.006607
1578.0,0.006721
1579.0,0.00636
1580.0,0.006594
1581.0,0.006526
1582.0,0.006521
1583.0,0.006401
1584.0,0.007297
1585.0,0.007557
1586.0,0.007349
1587.0,0.007192
1588.0,0.007653
1589.0,0.007487
1590.0,0.007397
1591.0,0.007724
1592.0,0.007589
1593.0,0.008053
1594.0,0.007836
1595.0,0.007903
1596.0,0.007532
1597.0,0.00733
1598.0,0.007996
1599.0,0.007951
1600.0,0.008063
1601.0,0.00773
1602.0,0.007538
1603.0,0.008032
1604.0,0.007929
1605.0,0.007992
1606.0,0.007871
1607.0,0.007964
1608.0,0.007529
1609.0,0.007646
1610.0,0.007457
1611.0,0.007549
1612.0,0.007811
1613.0,0.007532
1614.0,0.007704
1615.0,0.007586
1616.0,0.007445
1617.0,0.00729
1618.0,0.007739
1619.0,0.007188
1620.0,0.007483
1621.0,0.007436
1622.0,0.007532
1623.0,0.007695
1624.0,0.007374
1625.0,0.007308
1626.0,0.007288
1627.0,0.007472
1628.0,0.007233
1629.0,0.007377
1630.0,0.007213
1631.0,0.006711
1632.0,0.006992
1633.0,0.005805
1634.0,0.007066
1635.0,0.005743
1636.0,0.006475
1637.0,0.006775
1638.0,0.004532
1639.0,0.006571
1640.0,0.004194
1641.0,0.006222
1642.0,0.006865
1643.0,0.003596
1644.0,0.007098
1645.0,0.004929
1646.0,0.003494
1647.0,0.007081
1648.0,0.00356
1649.0,0.006143
1650.0,0.006433
1651.0,0.002963
1652.0,0.005979
1653.0,0.006582
1654.0,0.003679
1655.0,0.006373
1656.0,0.005142
1657.0,0.005684
1658.0,0.006775
1659.0,0.006396
1660.0,0.006441
1661.0,0.006417
1662.0,0.005235
1663.0,0.006698
1664.0,0.006406
1665.0,0.003634
1666.0,0.000494
1667.0,0.00365
1668.0,0.005887
1669.0,0.006041
1670.0,0.00659
1671.0,0.00588
1672.0,0.006313
1673.0,0.00658
1674.0,0.005355
1675.0,0.005615
1676.0,0.006221
1677.0,0.00554
1678.0,0.004527
1679.0,0.006413
1680.0,0.005842
1681.0,0.004504
1682.0,0.006256
1683.0,0.006444
1684.0,0.002952
1685.0,0.006418
1686.0,0.006368
1687.0,0.004569
1688.0,0.00599
1689.0,0.006093
1690.0,0.005601
1691.0,0.003215
1692.0,0.005223
1693.0,0.006409
1694.0,0.004705
1695.0,0.005943
1696.0,0.006312
1697.0,0.002278
1698.0,0.00568
1699.0,0.005801
1700.0,0.004852
1702.0,0.005607
1705.0,0.004527
1710.0,0.004075
1715.0,0.004344
1720.0,0.004565
1725.0,0.00299
1730.0,0.003548
1735.0,0.003028
1740.0,0.003001
1745.0,0.002995
1750.0,0.002334
1755.0,0.002242
1760.0,0.002015
1765.0,0.001205
1770.0,0.001104
1775.0,0.0005989
1780.0,0.0003127
1785.0,0.0001028
1790.0,0.0001019
1795.0,1.09e-05
1800.0,7.517e-06
1805.0,2.97e-06
1810.0,1.93e-06
1815.0,5.579e-07
1820.0,1.396e-07
1825.0,1.822e-07
1830.0,4.44e-10
1835.0,6.723e-10
1840.0,3.923e-12
1845.0,4.195e-10
1850.0,1.894e-10
1855.0,1.81e-11
1860.0,1.037e-09
1865.0,1.446e-09
1870.0,7.912e-15
1875.0,1.43e-14
1880.0,7.614e-09
1885.0,4.057e-09
1890.0,2.225e-08
1895.0,1.291e-08
1900.0,5.52e-11
1905.0,3.76e-11
1910.0,1.821e-09
1915.0,1.774e-09
1920.0,4.653e-08
1925.0,1.093e-07
1930.0,6.314e-08
1935.0,4.813e-07
1940.0,4.78e-07
1945.0,1.969e-06
1950.0,3.886e-06
1955.0,3.414e-06
1960.0,6.33e-06
1965.0,8.059e-05
1970.0,0.0002465
1975.0,0.0003361
1980.0,0.0002503
1985.0,0.0004212
1990.0,0.0007323
1995.0,0.0007909
2000.0,0.001243
2005.0,0.0005525
2010.0,0.002576
2015.0,0.0007985
2020.0,0.00131
2025.0,0.002087
2030.0,0.001461
2035.0,0.002569
2040.0,0.00202
2045.0,0.002153
2050.0,0.002802
2055.0,0.002125
2060.0,0.001904
2065.0,0.00216
2070.0,0.001941
2075.0,0.00266
2080.0,0.002615
2085.0,0.002571
2090.0,0.002779
2095.0,0.002516
2100.0,0.001869
2105.0,0.00252
2110.0,0.002065
2115.0,0.002559
2120.0,0.00187
2125.0,0.002229
2130.0,0.002557
2135.0,0.002697
2140.0,0.002788
2145.0,0.002741
2150.0,0.00184
2155.0,0.001841
2160.0,0.001936
2165.0,0.001647
2170.0,0.002051
2175.0,0.001623
2180.0,0.001962
2185.0,0.001287
2190.0,0.001855
2195.0,0.001724
2200.0,0.0005469
2205.0,0.001197
2210.0,0.00217
2215.0,0.001636
2220.0,0.001755
2225.0,0.001532
2230.0,0.00156
2235.0,0.001353
2240.0,0.001311
2245.0,0.0009102
2250.0,0.001283
2255.0,0.000662
2260.0,0.0005986
2265.0,0.00088
2270.0,0.0004609
2275.0,0.0004173
2280.0,0.0008406
2285.0,0.0004233
2290.0,0.00045
2295.0,0.0004131
2300.0,0.0002308
2305.0,0.000269
2310.0,0.0008973
2315.0,0.0002851
2320.0,0.0001075
2325.0,0.0005376
2330.0,0.0003454
2335.0,0.0004536
2340.0,8.204e-05
2345.0,0.0001247
2350.0,5.826e-05
2355.0,9.071e-05
2360.0,0.0001445
2365.0,0.0002879
2370.0,4.962e-06
2375.0,7.638e-05
2380.0,0.0001299
2385.0,2.281e-05
2390.0,3.754e-05
2395.0,5.311e-05
2400.0,7.21e-05
2405.0,5.946e-05
2410.0,5.778e-05
2415.0,7.387e-06
2420.0,6.781e-06
2425.0,1.212e-05
2430.0,4.112e-05
2435.0,1.295e-06
2440.0,4.835e-05
2445.0,2.418e-06
2450.0,1.037e-06
2455.0,1.029e-05
2460.0,5.54e-06
2465.0,2.008e-06
2470.0,1.092e-06
2475.0,1.078e-06
2480.0,5.046e-07
2485.0,3.215e-07
2490.0,1.849e-07
2495.0,1.599e-07
2500.0,3.968e-07
2505.0,8.07e-08
2510.0,1.188e-07
2515.0,2.513e-08
2520.0,1.413e-08
2525.0,1.611e-09
2530.0,1.121e-11
2535.0,2.48e-12
2540.0,5.884e-12
2545.0,4.563e-16
2550.0,1.85e-18
2555.0,8.879e-15
2560.0,2.665e-16
2565.0,5.966e-20
2570.0,1.776e-24
2575.0,1.124e-34
2580.0,1.172e-28
2585.0,2.449e-42
2590.0,1.528e-38
2595.0,2.973e-40
2600.0,2.4480000000000003e-35
2605.0,2.7060000000000003e-42
2610.0,9.313e-42
2615.0,1.4009999999999999e-45
2620.0,8.206000000000001e-36
2625.0,1.503e-35
2630.0,0.0
2635.0,7.826e-22
2640.0,1.6939999999999998e-22
2645.0,7.384e-25
2650.0,7.355000000000001e-26
2655.0,8.845e-35
2660.0,7.448e-32
2665.0,7.006e-45
2670.0,0.0
2675.0,3.643e-44
2680.0,1.51e-30
2685.0,1.4430000000000001e-31
2690.0,5.3970000000000005e-31
2695.0,2.117e-33
2700.0,6.168e-29
2705.0,1.749e-26
2710.0,1.393e-31
2715.0,1.7589999999999998e-29
2720.0,0.0
2725.0,3.938e-27
2730.0,1.148e-24
2735.0,1.309e-26
2740.0,2.365e-32
2745.0,3.05e-27
2750.0,1.7090000000000002e-26
2755.0,2.7500000000000003e-28
2760.0,4.12e-23
2765.0,1.934e-29
2770.0,9.502e-27
2775.0,9.89e-19
2780.0,5.4620000000000004e-21
2785.0,2.0510000000000003e-20
2790.0,6.173e-18
2795.0,1.029e-18
2800.0,4.432e-14
2805.0,6.14e-17
2810.0,2.462e-13
2815.0,7.344e-14
2820.0,8.973e-16
2825.0,7.877e-12
2830.0,1.712e-10
2835.0,2.358e-15
2840.0,2.133e-11
2845.0,1.746e-09
2850.0,3.022e-11
2855.0,1.207e-11
2860.0,6.276e-10
2865.0,4.627e-09
2870.0,1.112e-09
2875.0,1.126e-08
2880.0,7.097e-09
2885.0,1.169e-08
2890.0,4.97e-09
2895.0,8.472e-08
2900.0,2.361e-08
2905.0,2.733e-09
2910.0,8.641e-08
2915.0,3.667e-08
2920.0,9.1e-08
2925.0,3.245e-08
2930.0,1.967e-07
2935.0,2.166e-07
2940.0,4.849e-08
2945.0,4.162e-08
2950.0,1.68e-07
2955.0,7.481e-08
2960.0,1.503e-07
2965.0,2.612e-07
2970.0,9.846e-09
2975.0,2.502e-08
2980.0,3.896e-08
2985.0,2.571e-07
2990.0,8.737e-07
2995.0,1.343e-07
3000.0,2.828e-07
3005.0,8.553e-08
3010.0,2.719e-07
3015.0,1.806e-07
3020.0,1.531e-08
3025.0,2.415e-07
3030.0,1.967e-07
3035.0,6.992e-08
3040.0,5.49e-08
3045.0,1.177e-07
3050.0,2.66e-08
3055.0,6.509e-09
3060.0,1.851e-07
3065.0,7.752e-08
3070.0,4.346e-08
3075.0,1.744e-07
3080.0,9.895e-08
3085.0,4.369e-08
3090.0,5.941e-08
3095.0,1.461e-08
3100.0,1.192e-07
3105.0,2.23e-08
3110.0,1.862e-08
3115.0,5.588e-08
3120.0,3.148e-07
3125.0,3.266e-07
3130.0,1.819e-07
3135.0,5.351e-07
3140.0,8.743e-08
3145.0,8.501e-08
3150.0,2.077e-07
3155.0,2.222e-07
3160.0,5.723e-07
3165.0,3.15e-06
3170.0,4.356e-06
3175.0,3.619e-07
3180.0,1.397e-06
3185.0,2.006e-07
3190.0,1.239e-07
3195.0,5.764e-08
3200.0,8.136e-09
3205.0,5.315e-09
3210.0,2.214e-09
3215.0,9.002e-09
3220.0,3.16e-08
3225.0,3.634e-09
3230.0,6.036e-09
3235.0,1.721e-07
3240.0,7.69e-08
3245.0,1.467e-08
3250.0,5.385e-08
3255.0,2.575e-07
3260.0,2.305e-08
3265.0,4.987e-08
3270.0,2.348e-08
3275.0,1.445e-07
3280.0,6.03e-08
3285.0,7.162e-07
3290.0,2.206e-07
3295.0,2.456e-08
3300.0,3.586e-08
3305.0,8.25e-08
3310.0,7.822e-08
3315.0,1.133e-10
3320.0,7.141e-10
3325.0,6.567e-08
3330.0,1.801e-07
3335.0,3.365e-07
3340.0,5.485e-07
3345.0,6.943e-08
3350.0,6.526e-07
3355.0,7.286e-08
3360.0,1.396e-07
3365.0,1.006e-06
3370.0,7.342e-08
3375.0,4.106e-06
3380.0,9.842e-08
3385.0,2.365e-06
3390.0,1.005e-06
3395.0,3.693e-06
3400.0,3.716e-05
3405.0,8.158e-08
3410.0,4.177e-06
3415.0,1.985e-07
3420.0,7.504e-05
3425.0,2.189e-06
3430.0,4.314e-07
3435.0,5.543e-05
3440.0,3.185e-07
3445.0,3.192e-05
3450.0,1.106e-05
3455.0,1.647e-06
3460.0,9.131e-05
3465.0,2.302e-06
3470.0,8.281e-05
3475.0,1.494e-05
3480.0,1.729e-05
3485.0,6.982e-05
3490.0,1.043e-05
3495.0,7.086e-05
3500.0,6.183e-05
3505.0,6.068e-05
3510.0,6.539e-05
3515.0,6.41e-05
3520.0,9.403e-05
3525.0,9.496e-05
3530.0,5.163e-05
3535.0,9.618e-06
3540.0,7.32e-06
3545.0,7.804e-06
3550.0,4.734e-05
3555.0,1.45e-05
3560.0,6.683e-05
3565.0,3.986e-05
3570.0,1.261e-05
3575.0,7.01e-06
3580.0,3.904e-05
3585.0,1.272e-05
3590.0,2.86e-05
3595.0,6.226e-05
3600.0,8.251e-05
3605.0,4.276e-05
3610.0,3.241e-05
3615.0,6.525e-05
3620.0,0.0001789
3625.0,5.326e-05
3630.0,7.342e-05
3635.0,8.558e-05
3640.0,0.0001935
3645.0,6.519e-05
3650.0,7.493e-05
3655.0,0.0001429
3660.0,0.0001677
3665.0,5.325e-05
3670.0,2.713e-05
3675.0,1.469e-06
3680.0,1.98e-05
3685.0,4.541e-05
3690.0,3.748e-05
3695.0,0.0001062
3700.0,0.0002028
3705.0,0.000181
3710.0,6.228e-05
3715.0,8.841e-05
3720.0,0.0001566
3725.0,0.0001761
3730.0,8.585e-05
3735.0,4.841e-05
3740.0,8.038e-05
3745.0,0.0001638
3750.0,0.0001055
3755.0,8.478e-05
3760.0,5.853e-05
3765.0,6.009e-05
3770.0,9.408e-05
3775.0,9.427e-05
3780.0,0.000134
3785.0,8.329e-05
3790.0,4.192e-05
3795.0,0.0001043
3800.0,0.0001723
3805.0,0.0001309
3810.0,6.448e-05
3815.0,5.641e-05
3820.0,0.0001681
3825.0,0.0001677
3830.0,0.0001743
3835.0,4.369e-05
3840.0,0.0001064
3845.0,7.788e-05
3850.0,8.033e-05
3855.0,6.322e-05
3860.0,2.572e-05
3865.0,2.453e-05
3870.0,7.751e-06
3875.0,2.754e-06
3880.0,1.653e-06
3885.0,2.556e-06
3890.0,3.148e-06
3895.0,1.011e-05
3900.0,3.062e-05
3905.0,2.557e-05
3910.0,6.068e-06
3915.0,4.734e-06
3920.0,5.026e-06
3925.0,4.53e-06
3930.0,6.691e-06
3935.0,1.212e-05
3940.0,1.467e-05
3945.0,1.98e-05
3950.0,2.682e-05
3955.0,3.205e-05
3960.0,3.709e-05
3965.0,4.179e-05
3970.0,3.775e-05
3975.0,2.822e-05
3980.0,2.495e-05
3985.0,2.83e-05
3990.0,2.538e-05
3995.0,2.027e-05
4000.0,1.612e-05
