interpolation:linear
wavelength,value
280.0,2.4479999999999998e-23
280.5,8.523e-22
281.0,4.648e-21
281.5,1.561e-19
282.0,1.282e-18
282.5,4.758e-18
283.0,1.381e-17
283.5,2.193e-17
284.0,3.531e-16
284.5,1.032e-15
285.0,7.396e-16
285.5,3.936e-15
286.0,1.61e-14
286.5,7.496e-14
287.0,2.191e-13
287.5,8.661e-13
288.0,8.589e-12
288.5,1.932e-11
289.0,4.422e-11
289.5,1.214e-10
290.0,3.194e-10
290.5,6.275e-10
291.0,1.303e-09
291.5,3.635e-09
292.0,6.93e-09
292.5,9.248e-09
293.0,1.88e-08
293.5,4.321e-08
294.0,6.464e-08
294.5,1.299e-08
295.0,2.181e-08
295.5,3.378e-08
296.0,5.912e-08
296.5,7.514e-08
297.0,9.4e-08
297.5,2.243e-07
298.0,3.197e-07
298.5,2.976e-07
299.0,6.081e-07
299.5,8.828e-07
300.0,9.006e-07
300.5,1.208e-06
301.0,1.93e-06
301.5,2.748e-06
302.0,2.219e-06
302.5,2.891e-06
303.0,5.206e-06
303.5,6.546e-06
304.0,6.117e-06
304.5,9.108e-06
305.0,1.412e-05
305.5,1.663e-05
306.0,1.631e-05
306.5,2.084e-05
307.0,3.313e-05
307.5,4.779e-05
308.0,5.122e-05
308.5,6.337e-05
309.0,5.722e-05
309.5,6.432e-05
310.0,6.517e-05
310.5,0.0001064
311.0,0.0001358
311.5,0.0001323
312.0,0.0001404
312.5,0.0001798
313.0,0.000201
313.5,0.0001898
314.0,0.0002554
314.5,0.0002577
315.0,0.0003502
315.5,0.000269
316.0,0.0002724
316.5,0.0004488
317.0,0.0005559
317.5,0.000556
318.0,0.0004774
318.5,0.0007175
319.0,0.0009409
319.5,0.0006538
320.0,0.0007716
320.5,0.001181
321.0,0.001272
321.5,0.001243
322.0,0.00108
322.5,0.0009489
323.0,0.001079
323.5,0.002702
324.0,0.003282
324.5,0.003008
325.0,0.001391
325.5,0.002
326.0,0.004659
326.5,0.005297
327.0,0.005035
327.5,0.004581
328.0,0.003427
328.5,0.004441
329.0,0.00639
329.5,0.007701
330.0,0.0074
330.5,0.0051
331.0,0.00498
331.5,0.005587
332.0,0.007115
332.5,0.007564
333.0,0.007235
333.5,0.005808
334.0,0.00583
334.5,0.00771
335.0,0.007821
335.5,0.009735
336.0,0.006735
336.5,0.007127
337.0,0.005527
337.5,0.006731
338.0,0.007335
338.5,0.009153
339.0,0.009131
339.5,0.008739
340.0,0.009525
340.5,0.008679
341.0,0.009066
341.5,0.008443
342.0,0.01013
342.5,0.009517
343.0,0.01038
343.5,0.009712
344.0,0.006694
344.5,0.00717
345.0,0.00965
345.5,0.009923
346.0,0.008474
346.5,0.009625
347.0,0.01026
347.5,0.008273
348.0,0.009519
348.5,0.009568
349.0,0.008898
349.5,0.008802
350.0,0.0109
350.5,0.0115
351.0,0.01022
351.5,0.009823
352.0,0.01063
352.5,0.008345
353.0,0.01055
353.5,0.01131
354.0,0.01177
354.5,0.01193
355.0,0.01187
355.5,0.01074
356.0,0.01126
356.5,0.009615
357.0,0.007943
357.5,0.009732
358.0,0.00772
358.5,0.006602
359.0,0.009227
359.5,0.01172
360.0,0.01244
360.5,0.00996
361.0,0.009093
361.5,0.01048
362.0,0.009071
362.5,0.01256
363.0,0.01128
363.5,0.01039
364.0,0.01272
364.5,0.01087
365.0,0.01107
365.5,0.0139
366.0,0.01473
366.5,0.01385
367.0,0.01349
367.5,0.01401
368.0,0.01226
368.5,0.01237
369.0,0.01336
369.5,0.01424
370.0,0.01519
370.5,0.01179
371.0,0.01261
371.5,0.01578
372.0,0.01047
372.5,0.01256
373.0,0.01278
373.5,0.008315
374.0,0.01209
374.5,0.01001
375.0,0.009734
375.5,0.01454
376.0,0.01205
376.5,0.01249
377.0,0.01323
377.5,0.01548
378.0,0.01679
378.5,0.01587
379.0,0.0131
379.5,0.01197
380.0,0.01244
380.5,0.01508
381.0,0.01511
381.5,0.01198
382.0,0.01064
382.5,0.009075
383.0,0.008403
383.5,0.008096
384.0,0.008933
384.5,0.01314
385.0,0.01304
385.5,0.01214
386.0,0.0104
386.5,0.01367
387.0,0.01136
387.5,0.01276
388.0,0.01178
388.5,0.01165
389.0,0.01258
389.5,0.01524
390.0,0.0153
390.5,0.01408
391.0,0.01658
391.5,0.01691
392.0,0.01425
392.5,0.01276
393.0,0.007101
393.5,0.005163
394.0,0.01051
394.5,0.01336
395.0,0.01631
395.5,0.01657
396.0,0.01437
396.5,0.008403
397.0,0.006309
397.5,0.01283
398.0,0.01798
398.5,0.01859
399.0,0.02013
399.5,0.02007
400.0,0.02084
401.0,0.02059
402.0,0.02172
403.0,0.02064
404.0,0.02033
405.0,0.02034
406.0,0.02001
407.0,0.01968
408.0,0.02044
409.0,0.02188
410.0,0.01912
411.0,0.02072
412.0,0.02227
413.0,0.02173
414.0,0.022
415.0,0.02205
416.0,0.02243
417.0,0.02188
418.0,0.02148
419.0,0.02177
420.0,0.02168
421.0,0.02268
422.0,0.02155
423.0,0.02103
424.0,0.02222
425.0,0.02217
426.0,0.0216
427.0,0.02121
428.0,0.02069
429.0,0.01961
430.0,0.01717
431.0,0.01701
432.0,0.02194
433.0,0.02205
434.0,0.02048
435.0,0.02141
436.0,0.02414
437.0,0.02381
438.0,0.02165
439.0,0.02235
440.0,0.02302
441.0,0.02381
442.0,0.02551
443.0,0.02483
444.0,0.02541
445.0,0.02491
446.0,0.02382
447.0,0.02579
448.0,0.02617
449.0,0.02624
450.0,0.02694
451.0,0.02793
452.0,0.02694
453.0,0.02536
454.0,0.0265
455.0,0.02662
456.0,0.02722
457.0,0.02759
458.0,0.02656
459.0,0.02632
460.0,0.0263
461.0,0.02685
462.0,0.02708
463.0,0.02695
464.0,0.02661
465.0,0.02638
466.0,0.02669
467.0,0.02618
468.0,0.02644
469.0,0.02651
470.0,0.02563
471.0,0.02561
472.0,0.027
473.0,0.02666
474.0,0.02666
475.0,0.0268
476.0,0.02584
477.0,0.02577
478.0,0.02637
479.0,0.02609
480.0,0.02603
481.0,0.02645
482.0,0.02659
483.0,0.02633
484.0,0.02589
485.0,0.02478
486.0,0.02177
487.0,0.02289
488.0,0.02511
489.0,0.02515
490.0,0.02643
491.0,0.02595
492.0,0.0245
493.0,0.02532
494.0,0.02559
495.0,0.02582
496.0,0.02594
497.0,0.02626
498.0,0.02492
499.0,0.02508
500.0,0.02419
501.0,0.02357
502.0,0.02301
503.0,0.02374
504.0,0.02285
505.0,0.0238
506.0,0.02458
507.0,0.02343
508.0,0.02282
509.0,0.02359
510.0,0.02358
511.0,0.0243
512.0,0.02461
513.0,0.02328
514.0,0.0231
515.0,0.02284
516.0,0.02274
517.0,0.0202
518.0,0.02122
519.0,0.02223
520.0,0.023
521.0,0.02316
522.0,0.02309
523.0,0.02262
524.0,0.02327
525.0,0.02336
526.0,0.02222
527.0,0.02077
528.0,0.02185
529.0,0.0229
530.0,0.02247
531.0,0.0227
532.0,0.02187
533.0,0.02122
534.0,0.02188
535.0,0.02244
536.0,0.02272
537.0,0.02188
538.0,0.02227
539.0,0.02206
540.0,0.02108
541.0,0.02101
542.0,0.02161
543.0,0.02145
544.0,0.02167
545.0,0.02161
546.0,0.02159
547.0,0.02167
548.0,0.02148
549.0,0.02157
550.0,0.02182
551.0,0.02158
552.0,0.02174
553.0,0.02132
554.0,0.02182
555.0,0.02182
556.0,0.02148
557.0,0.02074
558.0,0.02047
559.0,0.01997
560.0,0.02009
561.0,0.02022
562.0,0.01993
563.0,0.02033
564.0,0.01965
565.0,0.01937
566.0,0.01899
567.0,0.01918
568.0,0.01868
569.0,0.01789
570.0,0.01783
571.0,0.01774
572.0,0.01787
573.0,0.01798
574.0,0.0178
575.0,0.01736
576.0,0.01718
577.0,0.01741
578.0,0.0173
579.0,0.01765
580.0,0.01841
581.0,0.01887
582.0,0.01952
583.0,0.01982
584.0,0.02017
585.0,0.01979
586.0,0.01944
587.0,0.01971
588.0,0.0188
589.0,0.01547
590.0,0.01608
591.0,0.01783
592.0,0.01706
593.0,0.01783
594.0,0.01755
595.0,0.01663
596.0,0.01845
597.0,0.01766
598.0,0.01798
599.0,0.01815
600.0,0.0183
601.0,0.01833
602.0,0.01829
603.0,0.01877
604.0,0.01922
605.0,0.01926
606.0,0.01928
607.0,0.0196
608.0,0.01953
609.0,0.01972
610.0,0.01974
611.0,0.02001
612.0,0.0201
613.0,0.01999
614.0,0.01986
615.0,0.02042
616.0,0.01985
617.0,0.0199
618.0,0.02076
619.0,0.02061
620.0,0.02078
621.0,0.02084
622.0,0.02061
623.0,0.0203
624.0,0.0199
625.0,0.0198
626.0,0.01998
627.0,0.01988
628.0,0.01481
629.0,0.01783
630.0,0.01727
631.0,0.01892
632.0,0.01907
633.0,0.02023
634.0,0.02058
635.0,0.02124
636.0,0.02126
637.0,0.02191
638.0,0.02256
639.0,0.02254
640.0,0.02265
641.0,0.02286
642.0,0.02305
643.0,0.02347
644.0,0.02364
645.0,0.02346
646.0,0.0225
647.0,0.02062
648.0,0.02105
649.0,0.02012
650.0,0.02224
651.0,0.02366
652.0,0.02106
653.0,0.02361
654.0,0.02354
655.0,0.02162
656.0,0.01974
657.0,0.02063
658.0,0.0236
659.0,0.02429
660.0,0.02452
661.0,0.02527
662.0,0.02581
663.0,0.0254
664.0,0.02577
665.0,0.02591
666.0,0.02611
667.0,0.02623
668.0,0.02651
669.0,0.02701
670.0,0.02704
671.0,0.02719
672.0,0.02709
673.0,0.02764
674.0,0.02766
675.0,0.02754
676.0,0.02785
677.0,0.0277
678.0,0.0279
679.0,0.02756
680.0,0.02786
681.0,0.0277
682.0,0.0277
683.0,0.02765
684.0,0.02745
685.0,0.02792
686.0,0.02749
687.0,0.00737
688.0,0.009355
689.0,0.009433
690.0,0.01067
691.0,0.01292
692.0,0.01582
693.0,0.01627
694.0,0.01752
695.0,0.0209
696.0,0.02113
697.0,0.02668
698.0,0.02546
699.0,0.02211
700.0,0.02193
701.0,0.02051
702.0,0.02124
703.0,0.02249
704.0,0.02489
705.0,0.02443
706.0,0.02503
707.0,0.02534
708.0,0.02559
709.0,0.02683
710.0,0.02552
711.0,0.02615
712.0,0.02706
713.0,0.02565
714.0,0.02651
715.0,0.02449
716.0,0.0237
717.0,0.01328
718.0,0.01254
719.0,0.01159
720.0,0.01108
721.0,0.01505
722.0,0.02015
723.0,0.01759
724.0,0.0141
725.0,0.01327
726.0,0.01322
727.0,0.01594
728.0,0.01235
729.0,0.01486
730.0,0.01482
731.0,0.01373
732.0,0.01743
733.0,0.02076
734.0,0.02266
735.0,0.02176
736.0,0.02067
737.0,0.02127
738.0,0.02495
739.0,0.02451
740.0,0.02619
741.0,0.02647
742.0,0.02722
743.0,0.02799
744.0,0.02825
745.0,0.02882
746.0,0.02896
747.0,0.02918
748.0,0.02919
749.0,0.02892
750.0,0.02894
751.0,0.02866
752.0,0.02886
753.0,0.02908
754.0,0.02911
755.0,0.02889
756.0,0.02898
757.0,0.02899
758.0,0.0285
759.0,0.02454
760.0,0.001343
761.0,0.0007162
762.0,0.003943
763.0,0.002002
764.0,0.002961
765.0,0.003899
766.0,0.004871
767.0,0.007454
768.0,0.01464
769.0,0.01803
770.0,0.02357
771.0,0.02657
772.0,0.02762
773.0,0.02808
774.0,0.02818
775.0,0.02816
776.0,0.02861
777.0,0.02828
778.0,0.02808
779.0,0.02812
780.0,0.02804
781.0,0.02811
782.0,0.02834
783.0,0.02791
784.0,0.02815
785.0,0.02776
786.0,0.02776
787.0,0.02505
788.0,0.02427
789.0,0.02418
790.0,0.02155
791.0,0.02356
792.0,0.02387
793.0,0.02328
794.0,0.02629
795.0,0.0261
796.0,0.02144
797.0,0.02189
798.0,0.02574
799.0,0.02495
800.0,0.02308
801.0,0.02237
802.0,0.02208
803.0,0.02092
804.0,0.02179
805.0,0.02288
806.0,0.02576
807.0,0.02512
808.0,0.0248
809.0,0.02251
810.0,0.02223
811.0,0.01964
812.0,0.01759
813.0,0.01686
814.0,0.0117
815.0,0.01186
816.0,0.01148
817.0,0.01141
818.0,0.01082
819.0,0.01289
820.0,0.01325
821.0,0.01858
822.0,0.01651
823.0,0.005918
824.0,0.01442
825.0,0.01998
826.0,0.01538
827.0,0.01878
828.0,0.0109
829.0,0.01683
830.0,0.0165
831.0,0.01608
832.0,0.01491
833.0,0.01714
834.0,0.01606
835.0,0.02157
836.0,0.01785
837.0,0.02134
838.0,0.01923
839.0,0.0215
840.0,0.02269
841.0,0.02135
842.0,0.02264
843.0,0.0247
844.0,0.02358
845.0,0.02513
846.0,0.02571
847.0,0.0256
848.0,0.02467
849.0,0.02408
850.0,0.02295
851.0,0.02345
852.0,0.02395
853.0,0.02355
854.0,0.01993
855.0,0.02247
856.0,0.02437
857.0,0.02543
858.0,0.02502
859.0,0.02556
860.0,0.02584
861.0,0.02561
862.0,0.02616
863.0,0.02675
864.0,0.0255
865.0,0.02536
866.0,0.02281
867.0,0.02383
868.0,0.02596
869.0,0.02548
870.0,0.02624
871.0,0.02585
872.0,0.02584
873.0,0.0258
874.0,0.02551
875.0,0.02493
876.0,0.02517
877.0,0.02544
878.0,0.02564
879.0,0.02526
880.0,0.02468
881.0,0.02395
882.0,0.02416
883.0,0.02472
884.0,0.02441
885.0,0.02439
886.0,0.02206
887.0,0.02349
888.0,0.02314
889.0,0.0246
890.0,0.02302
891.0,0.02378
892.0,0.02078
893.0,0.01936
894.0,0.01567
895.0,0.0122
896.0,0.01067
897.0,0.007979
898.0,0.008943
899.0,0.004887
900.0,0.009269
901.0,0.005243
902.0,0.006459
903.0,0.006974
904.0,0.01436
905.0,0.01299
906.0,0.01153
907.0,0.006182
908.0,0.007502
909.0,0.007915
910.0,0.005131
911.0,0.007523
912.0,0.008909
913.0,0.005286
914.0,0.006827
915.0,0.005461
916.0,0.005416
917.0,0.007556
918.0,0.005025
919.0,0.0082
920.0,0.01145
921.0,0.0111
922.0,0.008197
923.0,0.01099
924.0,0.007628
925.0,0.0071
926.0,0.00725
927.0,0.008957
928.0,0.003171
929.0,0.002437
930.0,0.001451
931.0,0.001323
932.0,0.0008997
933.0,0.0007171
934.0,0.0003871
935.0,0.0007284
936.0,0.0004498
937.0,0.000454
938.0,0.0005564
939.0,0.001246
940.0,0.001625
941.0,0.00109
942.0,0.001281
943.0,0.0008011
944.0,0.000872
945.0,0.001118
946.0,0.0005344
947.0,0.001099
948.0,0.0008094
949.0,0.001577
950.0,0.0003862
951.0,0.00154
952.0,0.0007882
953.0,0.001033
954.0,0.001301
955.0,0.001187
956.0,0.001302
957.0,0.0007867
958.0,0.002016
959.0,0.001286
960.0,0.00154
961.0,0.002035
962.0,0.00191
963.0,0.002905
964.0,0.002478
965.0,0.002515
966.0,0.003069
967.0,0.003122
968.0,0.01019
969.0,0.007645
970.0,0.008005
971.0,0.01078
972.0,0.01005
973.0,0.0055
974.0,0.005268
975.0,0.006355
976.0,0.00502
977.0,0.009676
978.0,0.006569
979.0,0.007794
980.0,0.007444
981.0,0.01134
982.0,0.01004
983.0,0.008842
984.0,0.01458
985.0,0.009393
986.0,0.01766
987.0,0.01449
988.0,0.01549
989.0,0.01908
990.0,0.01423
991.0,0.019
992.0,0.01936
993.0,0.01639
994.0,0.01974
995.0,0.02025
996.0,0.01966
997.0,0.01985
998.0,0.01955
999.0,0.01966
1000.0,0.01901
1001.0,0.0199
1002.0,0.01618
1003.0,0.01948
1004.0,0.01791
1005.0,0.01836
1006.0,0.01896
1007.0,0.01929
1008.0,0.01884
1009.0,0.01821
1010.0,0.01803
1011.0,0.01914
1012.0,0.01879
1013.0,0.01943
1014.0,0.01929
1015.0,0.01914
1016.0,0.01891
1017.0,0.01877
1018.0,0.01916
1019.0,0.01746
1020.0,0.01892
1021.0,0.01908
1022.0,0.0185
1023.0,0.0188
1024.0,0.0174
1025.0,0.01901
1026.0,0.01848
1027.0,0.01875
1028.0,0.01857
1029.0,0.01807
1030.0,0.01864
1031.0,0.0185
1032.0,0.01847
1033.0,0.01826
1034.0,0.01825
1035.0,0.01832
1036.0,0.01819
1037.0,0.018
1038.0,0.01801
1039.0,0.01789
1040.0,0.01778
1041.0,0.01771
1042.0,0.01757
1043.0,0.01743
1044.0,0.01739
1045.0,0.01707
1046.0,0.01678
1047.0,0.01682
1048.0,0.01678
1049.0,0.0166
1050.0,0.01639
1051.0,0.0162
1052.0,0.01599
1053.0,0.01567
1054.0,0.01551
1055.0,0.01529
1056.0,0.01498
1057.0,0.01475
1058.0,0.0142
1059.0,0.01397
1060.0,0.01385
1061.0,0.01371
1062.0,0.01363
1063.0,0.01327
1064.0,0.01349
1065.0,0.0129
1066.0,0.01302
1067.0,0.01312
1068.0,0.01251
1069.0,0.01248
1070.0,0.01292
1071.0,0.01376
1072.0,0.01312
1073.0,0.01295
1074.0,0.01435
1075.0,0.01161
1076.0,0.01435
1077.0,0.01311
1078.0,0.01194
1079.0,0.01471
1080.0,0.01257
1081.0,0.01118
1082.0,0.01339
1083.0,0.01384
1084.0,0.01102
1085.0,0.01296
1086.0,0.009722
1087.0,0.0111
1088.0,0.01366
1089.0,0.01079
1090.0,0.01005
1091.0,0.01269
1092.0,0.01296
1093.0,0.007155
1094.0,0.01116
1095.0,0.007032
1096.0,0.005991
1097.0,0.01286
1098.0,0.005878
1099.0,0.005818
1100.0,0.004289
1101.0,0.005109
1102.0,0.00414
1103.0,0.003323
1104.0,0.003863
1105.0,0.004623
1106.0,0.001651
1107.0,0.004428
1108.0,0.002061
1109.0,0.002057
1110.0,0.003019
1111.0,0.0008624
1112.0,0.002253
1113.0,0.0005744
1114.0,0.0006233
1115.0,0.0004708
1116.0,0.000311
1117.0,0.0001099
1118.0,0.0003392
1119.0,0.0001622
1120.0,0.0002031
1121.0,0.0002697
1122.0,0.0001116
1123.0,0.0001817
1124.0,0.0001528
1125.0,0.0001994
1126.0,6.766e-05
1127.0,0.0002233
1128.0,0.0001315
1129.0,0.0001393
1130.0,9.078e-05
1131.0,0.000427
1132.0,0.0003318
1133.0,0.0002057
1134.0,5.123e-05
1135.0,1.92e-05
1136.0,0.0001691
1137.0,0.0004089
1138.0,0.0002858
1139.0,0.0004792
1140.0,0.0003696
1141.0,0.0002702
1142.0,0.0003135
1143.0,0.0004624
1144.0,0.0001512
1145.0,0.0001905
1146.0,0.0002047
1147.0,7.04e-05
1148.0,0.0003897
1149.0,0.0002992
1150.0,0.0001614
1151.0,0.0002732
1152.0,0.0003451
1153.0,0.0003552
1154.0,0.0001806
1155.0,0.0005037
1156.0,0.0004458
1157.0,0.0006854
1158.0,0.0006669
1159.0,0.0007444
1160.0,0.0007369
1161.0,0.001605
1162.0,0.001783
1163.0,0.004093
1164.0,0.003009
1165.0,0.001917
1166.0,0.002927
1167.0,0.003303
1168.0,0.003524
1169.0,0.004069
1170.0,0.005531
1171.0,0.004579
1172.0,0.006531
1173.0,0.004971
1174.0,0.001925
1175.0,0.005976
1176.0,0.009511
1177.0,0.007135
1178.0,0.003374
1179.0,0.009071
1180.0,0.006418
1181.0,0.005527
1182.0,0.001765
1183.0,0.005945
1184.0,0.005438
1185.0,0.004194
1186.0,0.007324
1187.0,0.005342
1188.0,0.001643
1189.0,0.005224
1190.0,0.007624
1191.0,0.005172
1192.0,0.008073
1193.0,0.007541
1194.0,0.007605
1195.0,0.005639
1196.0,0.004553
1197.0,0.007854
1198.0,0.007219
1199.0,0.003122
1200.0,0.006645
1201.0,0.004923
1202.0,0.006821
1203.0,0.005186
1204.0,0.005062
1205.0,0.008141
1206.0,0.0103
1207.0,0.006092
1208.0,0.00695
1209.0,0.007021
1210.0,0.008775
1211.0,0.007382
1212.0,0.004799
1213.0,0.008658
1214.0,0.005596
1215.0,0.005168
1216.0,0.009381
1217.0,0.008336
1218.0,0.009266
1219.0,0.00863
1220.0,0.009172
1221.0,0.01026
1222.0,0.009321
1223.0,0.008958
1224.0,0.008049
1225.0,0.009343
1226.0,0.01055
1227.0,0.007133
1228.0,0.0114
1229.0,0.01034
1230.0,0.009876
1231.0,0.01193
1232.0,0.01182
1233.0,0.008549
1234.0,0.01271
1235.0,0.01197
1236.0,0.01259
1237.0,0.01118
1238.0,0.01255
1239.0,0.01239
1240.0,0.01264
1241.0,0.01174
1242.0,0.01241
1243.0,0.0124
1244.0,0.01211
1245.0,0.01239
1246.0,0.01237
1247.0,0.01198
1248.0,0.01154
1249.0,0.01197
1250.0,0.01155
1251.0,0.01076
1252.0,0.01161
1253.0,0.01004
1254.0,0.009106
1255.0,0.01126
1256.0,0.008443
1257.0,0.007943
1258.0,0.009896
1259.0,0.006383
1260.0,0.00676
1261.0,0.003824
1262.0,0.002815
1263.0,0.002807
1264.0,0.001386
1265.0,0.002787
1266.0,0.001868
1267.0,0.002445
1268.0,0.001548
1269.0,0.0002289
1270.0,0.002188
1271.0,0.004163
1272.0,0.004269
1273.0,0.003983
1274.0,0.00445
1275.0,0.00481
1276.0,0.005459
1277.0,0.006383
1278.0,0.00766
1279.0,0.007784
1280.0,0.007819
1281.0,0.008264
1282.0,0.009056
1283.0,0.009464
1284.0,0.009754
1285.0,0.01006
1286.0,0.01067
1287.0,0.009671
1288.0,0.01008
1289.0,0.007284
1290.0,0.009927
1291.0,0.01057
1292.0,0.006343
1293.0,0.009723
1294.0,0.009283
1295.0,0.007354
1296.0,0.005933
1297.0,0.00495
1298.0,0.007054
1299.0,0.009408
1300.0,0.004158
1301.0,0.004117
1302.0,0.007088
1303.0,0.004889
1304.0,0.001873
1305.0,0.006378
1306.0,0.005436
1307.0,0.002488
1308.0,0.004377
1309.0,0.004812
1310.0,0.002371
1311.0,0.004256
1312.0,0.003714
1313.0,0.002594
1314.0,0.001345
1315.0,0.001299
1316.0,0.003593
1317.0,0.003463
1318.0,0.004343
1319.0,0.001407
1320.0,0.001148
1321.0,0.002126
1322.0,0.001424
1323.0,0.0004651
1324.0,0.001424
1325.0,0.002259
1326.0,0.001485
1327.0,0.001129
1328.0,0.0005061
1329.0,0.0001828
1330.0,0.0003208
1331.0,0.0001255
1332.0,0.0001213
1333.0,0.0001838
1334.0,0.0002529
1335.0,0.0003015
1336.0,0.0001852
1337.0,0.0001763
1338.0,0.0001749
1339.0,0.0001719
1340.0,0.0001786
1341.0,0.0001377
1342.0,0.000149
1343.0,9.175e-05
1344.0,5.479e-05
1345.0,7.834e-05
1346.0,3.862e-05
1347.0,3.912e-05
1348.0,2.522e-06
1349.0,9.048e-06
1350.0,9.38e-06
1351.0,2.268e-06
1352.0,6.1e-07
1353.0,3.105e-08
1354.0,1.067e-07
1355.0,8.593e-10
1356.0,1.504e-08
1357.0,2.285e-08
1358.0,1.009e-09
1359.0,1.271e-10
1360.0,4.594e-10
1361.0,5.139e-13
1362.0,1.406e-15
1363.0,6.178e-10
1364.0,2.551e-10
1365.0,4.909e-16
1366.0,2.678e-09
1367.0,1.093e-09
1368.0,3.792e-18
1369.0,9.402e-11
1370.0,4.631e-11
1371.0,2.625e-12
1372.0,5.931e-10
1373.0,1.195e-08
1374.0,5.542e-08
1375.0,1.005e-07
1376.0,9.016e-08
1377.0,4.118e-08
1378.0,4.027e-07
1379.0,1.721e-08
1380.0,2.473e-08
1381.0,6.443e-10
1382.0,5.201e-10
1383.0,7.775e-12
1384.0,1.02e-10
1385.0,4.875e-10
1386.0,4.586e-10
1387.0,5.547e-08
1388.0,1.091e-09
1389.0,1.873e-07
1390.0,1.608e-07
1391.0,1.069e-07
1392.0,6.931e-09
1393.0,3.672e-08
1394.0,1.893e-08
1395.0,1.387e-10
1396.0,6.704e-13
1397.0,1.446e-08
1398.0,4.276e-07
1399.0,2.705e-07
1400.0,2.867e-13
1401.0,1.19e-12
1402.0,7.494e-07
1403.0,9.387e-07
1404.0,2.852e-07
1405.0,6.571e-11
1406.0,7.372e-07
1407.0,6.497e-08
1408.0,5.998e-07
1409.0,2e-07
1410.0,1.601e-07
1411.0,8.074e-07
1412.0,1.089e-06
1413.0,1.134e-05
1414.0,1.25e-07
1415.0,5.97e-08
1416.0,1.874e-05
1417.0,5.534e-06
1418.0,6.267e-06
1419.0,9.645e-07
1420.0,3.809e-06
1421.0,4.109e-06
1422.0,2.409e-05
1423.0,4.621e-06
1424.0,8.675e-06
1425.0,1.267e-05
1426.0,1.45e-05
1427.0,2.698e-05
1428.0,1.888e-06
1429.0,1.987e-05
1430.0,3.429e-05
1431.0,3.77e-05
1432.0,1.467e-06
1433.0,2.365e-05
1434.0,1.19e-05
1435.0,1.153e-05
1436.0,2.271e-05
1437.0,1.736e-05
1438.0,7.167e-06
1439.0,3.087e-05
1440.0,2.305e-05
1441.0,1.723e-05
1442.0,1.909e-05
1443.0,2.436e-05
1444.0,3.393e-05
1445.0,2.605e-05
1446.0,1.156e-05
1447.0,1.821e-05
1448.0,6.465e-05
1449.0,5.553e-05
1450.0,1.343e-05
1451.0,5.286e-06
1452.0,3.264e-05
1453.0,4.303e-05
1454.0,7.752e-05
1455.0,3.49e-05
1456.0,4.653e-05
1457.0,6.382e-05
1458.0,8.293e-05
1459.0,9.749e-05
1460.0,4.714e-05
1461.0,4.698e-05
1462.0,7.158e-05
1463.0,2.204e-05
1464.0,8.807e-05
1465.0,5.201e-05
1466.0,3.297e-05
1467.0,1.686e-05
1468.0,3.904e-05
1469.0,4.852e-05
1470.0,2.325e-05
1471.0,8.249e-06
1472.0,2.21e-05
1473.0,3.436e-05
1474.0,5.285e-05
1475.0,0.0001124
1476.0,3.442e-05
1477.0,3.416e-05
1478.0,3.233e-05
1479.0,6.501e-05
1480.0,2.927e-05
1481.0,5.943e-05
1482.0,2.89e-05
1483.0,8.421e-05
1484.0,9.692e-05
1485.0,7.354e-05
1486.0,6.421e-05
1487.0,2.78e-05
1488.0,5.645e-05
1489.0,0.0001681
1490.0,0.0003022
1491.0,0.0003613
1492.0,0.0001236
1493.0,0.0002921
1494.0,0.0007218
1495.0,0.0003832
1496.0,0.000268
1497.0,0.001532
1498.0,0.0008127
1499.0,0.0009562
1500.0,0.002806
1501.0,0.002651
1502.0,0.002195
1503.0,0.0009278
1504.0,0.0002127
1505.0,0.0009085
1506.0,0.003434
1507.0,0.003131
1508.0,0.002987
1509.0,0.001115
1510.0,0.004159
1511.0,0.003042
1512.0,0.004306
1513.0,0.002222
1514.0,0.001842
1515.0,0.004839
1516.0,0.004196
1517.0,0.002848
1518.0,0.003658
1519.0,0.002616
1520.0,0.003775
1521.0,0.006939
1522.0,0.004777
1523.0,0.007256
1524.0,0.005679
1525.0,0.004011
1526.0,0.00396
1527.0,0.004894
1528.0,0.006665
1529.0,0.00578
1530.0,0.004508
1531.0,0.005448
1532.0,0.007397
1533.0,0.007819
1534.0,0.007712
1535.0,0.007021
1536.0,0.007434
1537.0,0.007063
1538.0,0.007754
1539.0,0.00731
1540.0,0.007764
1541.0,0.007594
1542.0,0.007186
1543.0,0.007756
1544.0,0.007434
1545.0,0.007998
1546.0,0.007219
1547.0,0.007602
1548.0,0.007637
1549.0,0.008019
1550.0,0.007794
1551.0,0.007632
1552.0,0.007426
1553.0,0.007788
1554.0,0.007521
1555.0,0.007768
1556.0,0.00764
1557.0,0.007827
1558.0,0.007796
1559.0,0.007709
1560.0,0.007677
1561.0,0.007768
1562.0,0.007463
1563.0,0.007415
1564.0,0.007368
1565.0,0.007762
1566.0,0.007437
1567.0,0.00754
1568.0,0.007356
1569.0,0.007688
1570.0,0.007668
1571.0,0.007667
1572.0,0.00763
1573.0,0.007425
1574.0,0.007001
1575.0,0.00682
1576.0,0.006291
1577.0,0.006045
1578.0,0.00614
1579.0,0.005794
1580.0,0.006014
1581.0,0.005953
1582.0,0.005952
1583.0,0.005837
1584.0,0.006691
1585.0,0.006936
1586.0,0.006748
1587.0,0.006594
1588.0,0.007048
1589.0,0.006899
1590.0,0.006805
1591.0,0.007113
1592.0,0.006978
1593.0,0.00741
1594.0,0.007211
1595.0,0.007274
1596.0,0.006926
1597.0,0.006724
1598.0,0.007358
1599.0,0.007322
1600.0,0.007432
1601.0,0.007114
1602.0,0.006929
1603.0,0.007401
1604.0,0.007304
1605.0,0.007366
1606.0,0.007253
1607.0,0.007339
1608.0,0.006916
1609.0,0.007043
1610.0,0.006865
1611.0,0.006952
1612.0,0.007199
1613.0,0.006929
1614.0,0.007097
1615.0,0.006988
1616.0,0.00686
1617.0,0.006699
1618.0,0.00713
1619.0,0.006605
1620.0,0.006896
1621.0,0.006847
1622.0,0.006933
1623.0,0.007086
1624.0,0.006781
1625.0,0.006714
1626.0,0.006699
1627.0,0.006873
1628.0,0.006644
1629.0,0.006786
1630.0,0.00663
1631.0,0.006148
1632.0,0.006423
1633.0,0.005288
1634.0,0.006493
1635.0,0.005228
1636.0,0.005932
1637.0,0.006221
1638.0,0.004097
1639.0,0.006034
1640.0,0.003789
1641.0,0.0057
1642.0,0.006308
1643.0,0.003217
1644.0,0.006537
1645.0,0.00447
1646.0,0.003122
1647.0,0.006515
1648.0,0.003182
1649.0,0.005622
1650.0,0.005895
1651.0,0.002631
1652.0,0.005457
1653.0,0.006056
1654.0,0.0033
1655.0,0.005842
1656.0,0.004671
1657.0,0.005185
1658.0,0.006229
1659.0,0.005865
1660.0,0.0059
1661.0,0.0059
1662.0,0.004773
1663.0,0.006153
1664.0,0.005888
1665.0,0.003254
1666.0,0.0004136
1667.0,0.003274
1668.0,0.005386
1669.0,0.005545
1670.0,0.006059
1671.0,0.005386
1672.0,0.005805
1673.0,0.006047
1674.0,0.004885
1675.0,0.00514
1676.0,0.005722
1677.0,0.005059
1678.0,0.004105
1679.0,0.0059
1680.0,0.005349
1681.0,0.004089
1682.0,0.005755
1683.0,0.005933
1684.0,0.002618
1685.0,0.005899
1686.0,0.005855
1687.0,0.004145
1688.0,0.005488
1689.0,0.005593
1690.0,0.005125
1691.0,0.002866
1692.0,0.004758
1693.0,0.005891
1694.0,0.004275
1695.0,0.005443
1696.0,0.005799
1697.0,0.002001
1698.0,0.005191
1699.0,0.005314
1700.0,0.004419
1702.0,0.005128
1705.0,0.004112
1710.0,0.003693
1715.0,0.003968
1720.0,0.004175
1725.0,0.002671
1730.0,0.003257
1735.0,0.002742
1740.0,0.002741
1745.0,0.002777
1750.0,0.002067
1755.0,0.002046
1760.0,0.001776
1765.0,0.001087
1770.0,0.0009713
1775.0,0.0005395
1780.0,0.0002798
1785.0,9.202e-05
1790.0,8.61e-05
1795.0,1.047e-05
1800.0,7.209e-06
1805.0,2.856e-06
1810.0,1.855e-06
1815.0,5.364e-07
1820.0,1.342e-07
1825.0,1.751e-07
1830.0,4.268e-10
1835.0,6.463e-10
1840.0,3.772e-12
1845.0,4.033e-10
1850.0,1.821e-10
1855.0,1.74e-11
1860.0,9.971e-10
1865.0,1.39e-09
1870.0,7.606e-15
1875.0,1.374e-14
1880.0,7.319e-09
1885.0,3.901e-09
1890.0,2.139e-08
1895.0,1.241e-08
1900.0,5.306e-11
1905.0,3.615e-11
1910.0,1.751e-09
1915.0,1.706e-09
1920.0,4.473e-08
1925.0,1.051e-07
1930.0,6.07e-08
1935.0,4.627e-07
1940.0,4.595e-07
1945.0,1.893e-06
1950.0,3.717e-06
1955.0,3.282e-06
1960.0,5.979e-06
1965.0,7.452e-05
1970.0,0.0002214
1975.0,0.0003
1980.0,0.000208
1985.0,0.0003561
1990.0,0.000664
1995.0,0.0006994
2000.0,0.001117
2005.0,0.0004924
2010.0,0.002332
2015.0,0.0006909
2020.0,0.001162
2025.0,0.001878
2030.0,0.001302
2035.0,0.002329
2040.0,0.001813
2045.0,0.001939
2050.0,0.002561
2055.0,0.001914
2060.0,0.001709
2065.0,0.00197
2070.0,0.001759
2075.0,0.00243
2080.0,0.002397
2085.0,0.002357
2090.0,0.002546
2095.0,0.002299
2100.0,0.001694
2105.0,0.002303
2110.0,0.001871
2115.0,0.002341
2120.0,0.001692
2125.0,0.002034
2130.0,0.002345
2135.0,0.002478
2140.0,0.00256
2145.0,0.002518
2150.0,0.001666
2155.0,0.00166
2160.0,0.001755
2165.0,0.001488
2170.0,0.001868
2175.0,0.001464
2180.0,0.001782
2185.0,0.001159
2190.0,0.001684
2195.0,0.001561
2200.0,0.0004724
2205.0,0.00107
2210.0,0.001984
2215.0,0.001478
2220.0,0.001592
2225.0,0.001382
2230.0,0.001407
2235.0,0.001214
2240.0,0.001175
2245.0,0.0008037
2250.0,0.00115
2255.0,0.000577
2260.0,0.00052
2265.0,0.0007768
2270.0,0.000396
2275.0,0.0003572
2280.0,0.0007413
2285.0,0.0003629
2290.0,0.0003867
2295.0,0.0003541
2300.0,0.0001936
2305.0,0.0002271
2310.0,0.0007946
2315.0,0.000241
2320.0,8.853e-05
2325.0,0.0004695
2330.0,0.0002954
2335.0,0.0003912
2340.0,6.762e-05
2345.0,0.0001022
2350.0,4.834e-05
2355.0,7.433e-05
2360.0,0.0001182
2365.0,0.0002486
2370.0,4.176e-06
2375.0,6.269e-05
2380.0,0.0001124
2385.0,1.858e-05
2390.0,2.982e-05
2395.0,4.235e-05
2400.0,5.696e-05
2405.0,5.026e-05
2410.0,4.82e-05
2415.0,6.046e-06
2420.0,5.373e-06
2425.0,9.37e-06
2430.0,3.148e-05
2435.0,1.175e-06
2440.0,3.695e-05
2445.0,2.058e-06
2450.0,9.637e-07
2455.0,8.447e-06
2460.0,4.359e-06
2465.0,1.809e-06
2470.0,1.049e-06
2475.0,1.029e-06
2480.0,4.825e-07
2485.0,3.091e-07
2490.0,1.778e-07
2495.0,1.538e-07
2500.0,3.815e-07
2505.0,7.759e-08
2510.0,1.142e-07
2515.0,2.417e-08
2520.0,1.358e-08
2525.0,1.549e-09
2530.0,1.078e-11
2535.0,2.385e-12
2540.0,5.657e-12
2545.0,4.388e-16
2550.0,1.779e-18
2555.0,8.538e-15
2560.0,2.563e-16
2565.0,5.737e-20
2570.0,1.708e-24
2575.0,1.0810000000000001e-34
2580.0,1.1270000000000001e-28
2585.0,2.356e-42
2590.0,1.469e-38
2595.0,2.859e-40
2600.0,2.3540000000000002e-35
2605.0,2.6010000000000002e-42
2610.0,8.954000000000001e-42
2615.0,1.4009999999999999e-45
2620.0,7.891000000000001e-36
2625.0,1.445e-35
2630.0,0.0
2635.0,7.5249999999999995e-22
2640.0,1.629e-22
2645.0,7.1e-25
2650.0,7.073000000000001e-26
2655.0,8.506e-35
2660.0,7.161000000000001e-32
2665.0,7.006e-45
2670.0,0.0
2675.0,3.5029999999999997e-44
2680.0,1.452e-30
2685.0,1.3870000000000001e-31
2690.0,5.1900000000000005e-31
2695.0,2.0359999999999998e-33
2700.0,5.931e-29
2705.0,1.6820000000000002e-26
2710.0,1.339e-31
2715.0,1.691e-29
2720.0,0.0
2725.0,3.787e-27
2730.0,1.104e-24
2735.0,1.2590000000000001e-26
2740.0,2.274e-32
2745.0,2.932e-27
2750.0,1.644e-26
2755.0,2.644e-28
2760.0,3.962e-23
2765.0,1.8589999999999998e-29
2770.0,9.137e-27
2775.0,1.279e-19
2780.0,5.252e-21
2785.0,1.9720000000000002e-20
2790.0,4.694e-18
2795.0,9.892e-19
2800.0,1.286e-14
2805.0,5.904e-17
2810.0,2.368e-13
2815.0,7.062e-14
2820.0,8.628e-16
2825.0,8.482e-12
2830.0,1.646e-10
2835.0,2.267e-15
2840.0,1.027e-11
2845.0,1.679e-09
2850.0,2.906e-11
2855.0,1.161e-11
2860.0,6.038e-10
2865.0,4.449e-09
2870.0,5.497e-10
2875.0,1.083e-08
2880.0,6.825e-09
2885.0,1.124e-08
2890.0,4.779e-09
2895.0,8.146e-08
2900.0,2.271e-08
2905.0,2.628e-09
2910.0,8.309e-08
2915.0,3.526e-08
2920.0,8.751e-08
2925.0,3.12e-08
2930.0,1.89e-07
2935.0,2.082e-07
2940.0,4.662e-08
2945.0,4.003e-08
2950.0,1.616e-07
2955.0,7.194e-08
2960.0,1.438e-07
2965.0,2.472e-07
2970.0,9.468e-09
2975.0,2.403e-08
2980.0,3.742e-08
2985.0,2.37e-07
2990.0,6.791e-07
2995.0,1.285e-07
3000.0,2.617e-07
3005.0,8.201e-08
3010.0,2.451e-07
3015.0,1.701e-07
3020.0,1.472e-08
3025.0,2.288e-07
3030.0,1.849e-07
3035.0,6.724e-08
3040.0,5.268e-08
3045.0,1.131e-07
3050.0,2.558e-08
3055.0,6.26e-09
3060.0,1.768e-07
3065.0,7.446e-08
3070.0,4.179e-08
3075.0,1.66e-07
3080.0,9.513e-08
3085.0,4.201e-08
3090.0,5.712e-08
3095.0,1.405e-08
3100.0,1.144e-07
3105.0,2.142e-08
3110.0,1.791e-08
3115.0,5.373e-08
3120.0,2.852e-07
3125.0,3.041e-07
3130.0,1.659e-07
3135.0,4.407e-07
3140.0,8.332e-08
3145.0,8.115e-08
3150.0,1.868e-07
3155.0,1.915e-07
3160.0,4.476e-07
3165.0,2.26e-06
3170.0,3.19e-06
3175.0,3.054e-07
3180.0,1.023e-06
3185.0,1.918e-07
3190.0,1.134e-07
3195.0,5.543e-08
3200.0,7.823e-09
3205.0,5.111e-09
3210.0,2.129e-09
3215.0,8.656e-09
3220.0,3.039e-08
3225.0,3.495e-09
3230.0,5.804e-09
3235.0,1.641e-07
3240.0,7.395e-08
3245.0,1.408e-08
3250.0,5.178e-08
3255.0,2.355e-07
3260.0,2.216e-08
3265.0,4.795e-08
3270.0,2.258e-08
3275.0,1.377e-07
3280.0,5.794e-08
3285.0,5.321e-07
3290.0,2.021e-07
3295.0,2.349e-08
3300.0,3.448e-08
3305.0,7.925e-08
3310.0,7.52e-08
3315.0,1.09e-10
3320.0,6.867e-10
3325.0,6.315e-08
3330.0,1.464e-07
3335.0,2.757e-07
3340.0,4.943e-07
3345.0,6.66e-08
3350.0,4.837e-07
3355.0,6.903e-08
3360.0,1.231e-07
3365.0,7.571e-07
3370.0,7.052e-08
3375.0,3.069e-06
3380.0,9.379e-08
3385.0,1.904e-06
3390.0,7.449e-07
3395.0,2.814e-06
3400.0,3.012e-05
3405.0,7.794e-08
3410.0,3.309e-06
3415.0,1.705e-07
3420.0,6.337e-05
3425.0,1.647e-06
3430.0,3.355e-07
3435.0,4.708e-05
3440.0,2.541e-07
3445.0,2.594e-05
3450.0,8.637e-06
3455.0,1.264e-06
3460.0,7.768e-05
3465.0,1.715e-06
3470.0,7.057e-05
3475.0,1.195e-05
3480.0,1.378e-05
3485.0,5.921e-05
3490.0,8.148e-06
3495.0,6.004e-05
3500.0,5.262e-05
3505.0,5.112e-05
3510.0,5.521e-05
3515.0,5.399e-05
3520.0,8.082e-05
3525.0,8.168e-05
3530.0,4.362e-05
3535.0,7.617e-06
3540.0,5.768e-06
3545.0,6.089e-06
3550.0,3.976e-05
3555.0,1.157e-05
3560.0,5.72e-05
3565.0,3.297e-05
3570.0,1.01e-05
3575.0,5.518e-06
3580.0,3.245e-05
3585.0,1.012e-05
3590.0,2.36e-05
3595.0,5.331e-05
3600.0,7.132e-05
3605.0,3.562e-05
3610.0,2.686e-05
3615.0,5.607e-05
3620.0,0.0001588
3625.0,4.507e-05
3630.0,6.337e-05
3635.0,7.432e-05
3640.0,0.0001735
3645.0,5.577e-05
3650.0,6.463e-05
3655.0,0.000126
3660.0,0.0001492
3665.0,4.505e-05
3670.0,2.268e-05
3675.0,1.127e-06
3680.0,1.633e-05
3685.0,3.795e-05
3690.0,3.127e-05
3695.0,9.292e-05
3700.0,0.0001819
3705.0,0.0001624
3710.0,5.319e-05
3715.0,7.714e-05
3720.0,0.0001385
3725.0,0.0001567
3730.0,7.449e-05
3735.0,4.117e-05
3740.0,6.994e-05
3745.0,0.0001458
3750.0,9.273e-05
3755.0,7.331e-05
3760.0,4.976e-05
3765.0,5.15e-05
3770.0,8.091e-05
3775.0,8.171e-05
3780.0,0.0001182
3785.0,7.284e-05
3790.0,3.565e-05
3795.0,9.164e-05
3800.0,0.0001535
3805.0,0.0001158
3810.0,5.628e-05
3815.0,4.85e-05
3820.0,0.0001499
3825.0,0.0001497
3830.0,0.0001555
3835.0,3.756e-05
3840.0,9.373e-05
3845.0,6.75e-05
3850.0,6.944e-05
3855.0,5.457e-05
3860.0,2.111e-05
3865.0,2.025e-05
3870.0,6.09e-06
3875.0,2.074e-06
3880.0,1.223e-06
3885.0,1.924e-06
3890.0,2.39e-06
3895.0,7.992e-06
3900.0,2.545e-05
3905.0,2.111e-05
3910.0,4.703e-06
3915.0,3.637e-06
3920.0,3.872e-06
3925.0,3.491e-06
3930.0,5.202e-06
3935.0,9.651e-06
3940.0,1.176e-05
3945.0,1.607e-05
3950.0,2.208e-05
3955.0,2.654e-05
3960.0,3.09e-05
3965.0,3.495e-05
3970.0,3.14e-05
3975.0,2.316e-05
3980.0,2.038e-05
3985.0,2.321e-05
3990.0,2.07e-05
3995.0,1.636e-05
4000.0,1.288e-05
