interpolation:linear
wavelength,value
280.0,2.182e-23
280.5,7.6589999999999995e-22
281.0,4.19e-21
281.5,1.418e-19
282.0,1.171e-18
282.5,4.549e-18
283.0,2.039e-17
283.5,3.805e-17
284.0,9.612e-16
284.5,2.608e-15
285.0,5.588e-16
285.5,3.228e-15
286.0,1.349e-14
286.5,6.5e-14
287.0,1.937e-13
287.5,7.812e-13
288.0,7.266e-11
288.5,4.839e-11
289.0,8.598e-11
289.5,2.097e-10
290.0,5.227e-10
290.5,9.957e-10
291.0,2.013e-09
291.5,5.483e-09
292.0,1.1e-08
292.5,1.426e-08
293.0,2.812e-08
293.5,6.259e-08
294.0,9.207e-08
294.5,1.83e-08
295.0,3.038e-08
295.5,5.123e-08
296.0,8.46e-08
296.5,1.025e-07
297.0,1.239e-07
297.5,2.831e-07
298.0,3.91e-07
298.5,3.563e-07
299.0,7.147e-07
299.5,1.009e-06
300.0,1.016e-06
300.5,1.345e-06
301.0,2.112e-06
301.5,2.968e-06
302.0,2.383e-06
302.5,2.043e-06
303.0,3.84e-06
303.5,4.953e-06
304.0,4.676e-06
304.5,7.159e-06
305.0,1.16e-05
305.5,1.409e-05
306.0,1.4e-05
306.5,1.83e-05
307.0,3.066e-05
307.5,4.678e-05
308.0,5.064e-05
308.5,6.46e-05
309.0,6.368e-05
309.5,6.429e-05
310.0,6.293e-05
310.5,0.0001012
311.0,0.0001265
311.5,0.0001222
312.0,0.0001252
312.5,0.0001576
313.0,0.0001789
313.5,0.0001663
314.0,0.0002353
314.5,0.0002511
315.0,0.0003415
315.5,0.0002606
316.0,0.000266
316.5,0.0004396
317.0,0.0005446
317.5,0.0005443
318.0,0.0004684
318.5,0.0007071
319.0,0.0009297
319.5,0.0006437
320.0,0.0007594
320.5,0.001168
321.0,0.001264
321.5,0.001237
322.0,0.001069
322.5,0.0009397
323.0,0.001072
323.5,0.002704
324.0,0.003289
324.5,0.003006
325.0,0.001384
325.5,0.001997
326.0,0.004676
326.5,0.005333
327.0,0.005067
327.5,0.004604
328.0,0.003428
328.5,0.004468
329.0,0.006379
329.5,0.00772
330.0,0.007396
330.5,0.005142
331.0,0.005016
331.5,0.005605
332.0,0.00715
332.5,0.007639
333.0,0.007288
333.5,0.005804
334.0,0.005819
334.5,0.007768
335.0,0.007922
335.5,0.009923
336.0,0.006866
336.5,0.007204
337.0,0.005566
337.5,0.00677
338.0,0.007434
338.5,0.009343
339.0,0.009326
339.5,0.008924
340.0,0.009662
340.5,0.008811
341.0,0.009265
341.5,0.008637
342.0,0.01037
342.5,0.009742
343.0,0.01062
343.5,0.009937
344.0,0.006806
344.5,0.007333
345.0,0.009881
345.5,0.01017
346.0,0.008685
346.5,0.009868
347.0,0.01051
347.5,0.008479
348.0,0.009763
348.5,0.009817
349.0,0.009133
349.5,0.009035
350.0,0.01119
350.5,0.0118
351.0,0.0105
351.5,0.01008
352.0,0.01091
352.5,0.008572
353.0,0.01084
353.5,0.01163
354.0,0.0121
354.5,0.01227
355.0,0.01221
355.5,0.01105
356.0,0.01158
356.5,0.009892
357.0,0.008173
357.5,0.01002
358.0,0.007946
358.5,0.006796
359.0,0.009499
359.5,0.01207
360.0,0.01281
360.5,0.01026
361.0,0.009366
361.5,0.0108
362.0,0.009346
362.5,0.01294
363.0,0.01163
363.5,0.01071
364.0,0.01311
364.5,0.01121
365.0,0.01141
365.5,0.01433
366.0,0.0152
366.5,0.01429
367.0,0.01392
367.5,0.01445
368.0,0.01265
368.5,0.01276
369.0,0.01379
369.5,0.0147
370.0,0.01568
370.5,0.01218
371.0,0.01302
371.5,0.01629
372.0,0.01082
372.5,0.01298
373.0,0.0132
373.5,0.008592
374.0,0.01249
374.5,0.01035
375.0,0.01006
375.5,0.01503
376.0,0.01246
376.5,0.01292
377.0,0.01368
377.5,0.01601
378.0,0.01736
378.5,0.01642
379.0,0.01355
379.5,0.01238
380.0,0.01288
380.5,0.0156
381.0,0.01564
381.5,0.0124
382.0,0.01102
382.5,0.009394
383.0,0.0087
383.5,0.008382
384.0,0.00925
384.5,0.01361
385.0,0.0135
385.5,0.01258
386.0,0.01077
386.5,0.01416
387.0,0.01177
387.5,0.01322
388.0,0.01221
388.5,0.01207
389.0,0.01304
389.5,0.01579
390.0,0.01586
390.5,0.0146
391.0,0.01719
391.5,0.01754
392.0,0.01477
392.5,0.01323
393.0,0.007364
393.5,0.005355
394.0,0.0109
394.5,0.01386
395.0,0.01692
395.5,0.01719
396.0,0.01491
396.5,0.008719
397.0,0.006546
397.5,0.01332
398.0,0.01866
398.5,0.01929
399.0,0.02089
399.5,0.02083
400.0,0.02163
401.0,0.02137
402.0,0.02255
403.0,0.02143
404.0,0.02111
405.0,0.02112
406.0,0.02078
407.0,0.02044
408.0,0.02123
409.0,0.02273
410.0,0.01986
411.0,0.02152
412.0,0.02313
413.0,0.02257
414.0,0.02285
415.0,0.02291
416.0,0.0233
417.0,0.02272
418.0,0.02231
419.0,0.02261
420.0,0.02252
421.0,0.02355
422.0,0.02237
423.0,0.02183
424.0,0.02307
425.0,0.02301
426.0,0.02242
427.0,0.02201
428.0,0.02147
429.0,0.02035
430.0,0.01781
431.0,0.01764
432.0,0.02275
433.0,0.02286
434.0,0.02123
435.0,0.02219
436.0,0.025
437.0,0.02465
438.0,0.02241
439.0,0.02313
440.0,0.02381
441.0,0.02462
442.0,0.02636
443.0,0.02567
444.0,0.02625
445.0,0.02573
446.0,0.0246
447.0,0.02661
448.0,0.027
449.0,0.02705
450.0,0.02775
451.0,0.02876
452.0,0.02772
453.0,0.02608
454.0,0.02724
455.0,0.02734
456.0,0.02794
457.0,0.0283
458.0,0.02723
459.0,0.02696
460.0,0.02691
461.0,0.02746
462.0,0.02766
463.0,0.02753
464.0,0.02716
465.0,0.0269
466.0,0.02719
467.0,0.02667
468.0,0.02691
469.0,0.02696
470.0,0.02605
471.0,0.02601
472.0,0.02742
473.0,0.02707
474.0,0.02708
475.0,0.02722
476.0,0.02626
477.0,0.02618
478.0,0.02674
479.0,0.02639
480.0,0.02625
481.0,0.0266
482.0,0.02667
483.0,0.02636
484.0,0.02589
485.0,0.02476
486.0,0.02172
487.0,0.02281
488.0,0.025
489.0,0.02502
490.0,0.02624
491.0,0.02571
492.0,0.02424
493.0,0.02502
494.0,0.02526
495.0,0.02545
496.0,0.02553
497.0,0.0258
498.0,0.02443
499.0,0.02455
500.0,0.02364
501.0,0.02301
502.0,0.02247
503.0,0.02318
504.0,0.02245
505.0,0.02318
506.0,0.02391
507.0,0.02278
508.0,0.02213
509.0,0.02282
510.0,0.02275
511.0,0.02337
512.0,0.0236
513.0,0.02229
514.0,0.02206
515.0,0.02176
516.0,0.02164
517.0,0.01918
518.0,0.02012
519.0,0.02105
520.0,0.02174
521.0,0.02185
522.0,0.02175
523.0,0.02128
524.0,0.02188
525.0,0.02196
526.0,0.02083
527.0,0.01946
528.0,0.02042
529.0,0.02138
530.0,0.02094
531.0,0.02113
532.0,0.02032
533.0,0.01967
534.0,0.02024
535.0,0.02068
536.0,0.02088
537.0,0.02006
538.0,0.02039
539.0,0.02017
540.0,0.01926
541.0,0.01928
542.0,0.0198
543.0,0.01951
544.0,0.01976
545.0,0.01963
546.0,0.01964
547.0,0.01959
548.0,0.01933
549.0,0.01936
550.0,0.01954
551.0,0.01926
552.0,0.01935
553.0,0.01895
554.0,0.01934
555.0,0.0193
556.0,0.01897
557.0,0.01829
558.0,0.01803
559.0,0.01756
560.0,0.01765
561.0,0.01776
562.0,0.01749
563.0,0.01785
564.0,0.01726
565.0,0.01702
566.0,0.01668
567.0,0.0169
568.0,0.01661
569.0,0.01614
570.0,0.01604
571.0,0.01586
572.0,0.01615
573.0,0.01626
574.0,0.01615
575.0,0.01582
576.0,0.01566
577.0,0.01585
578.0,0.01566
579.0,0.0158
580.0,0.01621
581.0,0.01639
582.0,0.01678
583.0,0.01689
584.0,0.01708
585.0,0.01669
586.0,0.01636
587.0,0.01668
588.0,0.01626
589.0,0.01403
590.0,0.01461
591.0,0.01553
592.0,0.01522
593.0,0.01557
594.0,0.01525
595.0,0.01486
596.0,0.01556
597.0,0.01517
598.0,0.01503
599.0,0.01513
600.0,0.01506
601.0,0.01491
602.0,0.0148
603.0,0.01507
604.0,0.01536
605.0,0.01533
606.0,0.01532
607.0,0.01554
608.0,0.01544
609.0,0.01555
610.0,0.01552
611.0,0.01569
612.0,0.01573
613.0,0.01561
614.0,0.01547
615.0,0.01587
616.0,0.01541
617.0,0.01543
618.0,0.01607
619.0,0.01595
620.0,0.01607
621.0,0.01611
622.0,0.01594
623.0,0.0157
624.0,0.01542
625.0,0.01538
626.0,0.0156
627.0,0.0157
628.0,0.01384
629.0,0.01493
630.0,0.0146
631.0,0.01524
632.0,0.01523
633.0,0.01583
634.0,0.01584
635.0,0.01622
636.0,0.01608
637.0,0.01647
638.0,0.01674
639.0,0.01664
640.0,0.01661
641.0,0.01668
642.0,0.01671
643.0,0.01703
644.0,0.01705
645.0,0.017
646.0,0.01666
647.0,0.01605
648.0,0.01596
649.0,0.0157
650.0,0.01618
651.0,0.01695
652.0,0.01585
653.0,0.01692
654.0,0.017
655.0,0.01579
656.0,0.01412
657.0,0.01479
658.0,0.01662
659.0,0.0171
660.0,0.01714
661.0,0.01737
662.0,0.01754
663.0,0.01727
664.0,0.0175
665.0,0.01753
666.0,0.01761
667.0,0.01766
668.0,0.01777
669.0,0.01809
670.0,0.01806
671.0,0.01811
672.0,0.01801
673.0,0.01833
674.0,0.0183
675.0,0.01818
676.0,0.01835
677.0,0.01821
678.0,0.0183
679.0,0.01804
680.0,0.0182
681.0,0.01807
682.0,0.01805
683.0,0.01799
684.0,0.01786
685.0,0.01809
686.0,0.01787
687.0,0.00935
688.0,0.01094
689.0,0.01098
690.0,0.01158
691.0,0.01244
692.0,0.01342
693.0,0.01342
694.0,0.01363
695.0,0.01494
696.0,0.01504
697.0,0.0177
698.0,0.01672
699.0,0.01544
700.0,0.01524
701.0,0.01466
702.0,0.01491
703.0,0.01533
704.0,0.01596
705.0,0.0163
706.0,0.01641
707.0,0.01631
708.0,0.01721
709.0,0.01741
710.0,0.01677
711.0,0.01698
712.0,0.01733
713.0,0.0166
714.0,0.01681
715.0,0.0159
716.0,0.01549
717.0,0.0114
718.0,0.0109
719.0,0.01052
720.0,0.01036
721.0,0.01228
722.0,0.01388
723.0,0.0132
724.0,0.01198
725.0,0.01129
726.0,0.01097
727.0,0.01285
728.0,0.01049
729.0,0.01148
730.0,0.01154
731.0,0.01116
732.0,0.01241
733.0,0.01377
734.0,0.01458
735.0,0.01415
736.0,0.01363
737.0,0.01397
738.0,0.01528
739.0,0.01507
740.0,0.01592
741.0,0.01588
742.0,0.01631
743.0,0.01662
744.0,0.01656
745.0,0.01676
746.0,0.01682
747.0,0.01691
748.0,0.01688
749.0,0.0167
750.0,0.0167
751.0,0.01652
752.0,0.01661
753.0,0.01673
754.0,0.01673
755.0,0.0166
756.0,0.01663
757.0,0.01662
758.0,0.01635
759.0,0.01469
760.0,0.001842
761.0,0.0009831
762.0,0.005404
763.0,0.002752
764.0,0.004074
765.0,0.005357
766.0,0.006512
767.0,0.008272
768.0,0.01074
769.0,0.01184
770.0,0.0139
771.0,0.01508
772.0,0.01549
773.0,0.01568
774.0,0.01567
775.0,0.0156
776.0,0.01581
777.0,0.01559
778.0,0.01545
779.0,0.01546
780.0,0.01538
781.0,0.01539
782.0,0.0155
783.0,0.01525
784.0,0.01536
785.0,0.01524
786.0,0.01522
787.0,0.01434
788.0,0.01435
789.0,0.01362
790.0,0.01238
791.0,0.01314
792.0,0.01322
793.0,0.01291
794.0,0.0144
795.0,0.01401
796.0,0.01257
797.0,0.01369
798.0,0.01456
799.0,0.0138
800.0,0.01274
801.0,0.0122
802.0,0.01303
803.0,0.0123
804.0,0.01281
805.0,0.01311
806.0,0.01421
807.0,0.01322
808.0,0.01356
809.0,0.01261
810.0,0.01237
811.0,0.01084
812.0,0.01036
813.0,0.009882
814.0,0.007921
815.0,0.007676
816.0,0.008777
817.0,0.00885
818.0,0.008948
819.0,0.008789
820.0,0.01025
821.0,0.01041
822.0,0.009534
823.0,0.00527
824.0,0.009213
825.0,0.01184
826.0,0.009251
827.0,0.0106
828.0,0.007919
829.0,0.01039
830.0,0.009996
831.0,0.009858
832.0,0.009721
833.0,0.009457
834.0,0.008861
835.0,0.0111
836.0,0.01004
837.0,0.01099
838.0,0.01005
839.0,0.01188
840.0,0.01245
841.0,0.01191
842.0,0.01205
843.0,0.01248
844.0,0.01183
845.0,0.01279
846.0,0.01295
847.0,0.01286
848.0,0.01258
849.0,0.01206
850.0,0.0116
851.0,0.01177
852.0,0.01199
853.0,0.0118
854.0,0.01019
855.0,0.01116
856.0,0.01226
857.0,0.01263
858.0,0.01251
859.0,0.01272
860.0,0.0128
861.0,0.01274
862.0,0.01294
863.0,0.01322
864.0,0.01259
865.0,0.01251
866.0,0.01124
867.0,0.01173
868.0,0.01277
869.0,0.01252
870.0,0.01288
871.0,0.01267
872.0,0.01266
873.0,0.01263
874.0,0.01247
875.0,0.01217
876.0,0.0123
877.0,0.01239
878.0,0.01252
879.0,0.01232
880.0,0.01199
881.0,0.01175
882.0,0.01183
883.0,0.01196
884.0,0.01186
885.0,0.01174
886.0,0.01057
887.0,0.01124
888.0,0.01112
889.0,0.01187
890.0,0.01081
891.0,0.01171
892.0,0.009859
893.0,0.009269
894.0,0.007683
895.0,0.006394
896.0,0.006651
897.0,0.006406
898.0,0.006647
899.0,0.004244
900.0,0.00568
901.0,0.004418
902.0,0.004343
903.0,0.005421
904.0,0.007581
905.0,0.006748
906.0,0.00656
907.0,0.005186
908.0,0.005722
909.0,0.00521
910.0,0.003796
911.0,0.00439
912.0,0.007374
913.0,0.003943
914.0,0.005778
915.0,0.0038
916.0,0.004542
917.0,0.00447
918.0,0.004091
919.0,0.0049
920.0,0.005921
921.0,0.005605
922.0,0.004565
923.0,0.005605
924.0,0.004333
925.0,0.004268
926.0,0.004157
927.0,0.004789
928.0,0.002896
929.0,0.002544
930.0,0.001961
931.0,0.001849
932.0,0.001322
933.0,0.001068
934.0,0.0005797
935.0,0.001086
936.0,0.000673
937.0,0.0006789
938.0,0.0008323
939.0,0.001737
940.0,0.002092
941.0,0.001559
942.0,0.0018
943.0,0.001175
944.0,0.001235
945.0,0.001582
946.0,0.0007977
947.0,0.001578
948.0,0.001156
949.0,0.002107
950.0,0.000578
951.0,0.002068
952.0,0.001144
953.0,0.001429
954.0,0.001743
955.0,0.001672
956.0,0.001396
957.0,0.001137
958.0,0.002025
959.0,0.00158
960.0,0.00182
961.0,0.002078
962.0,0.001928
963.0,0.002432
964.0,0.002166
965.0,0.002281
966.0,0.002593
967.0,0.00297
968.0,0.005959
969.0,0.003822
970.0,0.005203
971.0,0.004807
972.0,0.005419
973.0,0.003442
974.0,0.00313
975.0,0.004206
976.0,0.004319
977.0,0.005334
978.0,0.003828
979.0,0.004688
980.0,0.004659
981.0,0.005122
982.0,0.004382
983.0,0.004226
984.0,0.006289
985.0,0.004242
986.0,0.008183
987.0,0.006017
988.0,0.006447
989.0,0.008404
990.0,0.005881
991.0,0.008241
992.0,0.008576
993.0,0.006839
994.0,0.008704
995.0,0.008923
996.0,0.008699
997.0,0.008698
998.0,0.008582
999.0,0.008627
1000.0,0.008584
1001.0,0.008744
1002.0,0.007359
1003.0,0.008629
1004.0,0.007886
1005.0,0.007918
1006.0,0.008198
1007.0,0.008408
1008.0,0.008111
1009.0,0.007724
1010.0,0.007687
1011.0,0.008211
1012.0,0.008022
1013.0,0.008385
1014.0,0.008336
1015.0,0.00831
1016.0,0.008166
1017.0,0.008082
1018.0,0.00823
1019.0,0.007437
1020.0,0.008167
1021.0,0.008205
1022.0,0.008003
1023.0,0.007978
1024.0,0.007247
1025.0,0.008164
1026.0,0.007877
1027.0,0.008124
1028.0,0.007888
1029.0,0.007724
1030.0,0.007904
1031.0,0.007965
1032.0,0.007823
1033.0,0.007778
1034.0,0.007735
1035.0,0.00777
1036.0,0.007683
1037.0,0.007617
1038.0,0.007609
1039.0,0.007543
1040.0,0.007495
1041.0,0.007448
1042.0,0.007389
1043.0,0.007322
1044.0,0.007294
1045.0,0.007147
1046.0,0.007016
1047.0,0.00702
1048.0,0.006995
1049.0,0.006908
1050.0,0.006807
1051.0,0.006718
1052.0,0.006617
1053.0,0.006473
1054.0,0.006392
1055.0,0.006285
1056.0,0.006141
1057.0,0.006039
1058.0,0.005801
1059.0,0.005694
1060.0,0.005642
1061.0,0.005572
1062.0,0.005582
1063.0,0.005373
1064.0,0.005466
1065.0,0.005208
1066.0,0.005254
1067.0,0.005319
1068.0,0.005076
1069.0,0.005008
1070.0,0.005259
1071.0,0.005564
1072.0,0.005243
1073.0,0.005327
1074.0,0.005774
1075.0,0.004461
1076.0,0.005874
1077.0,0.005083
1078.0,0.004577
1079.0,0.005995
1080.0,0.004969
1081.0,0.004214
1082.0,0.005266
1083.0,0.005507
1084.0,0.004301
1085.0,0.005134
1086.0,0.004123
1087.0,0.004148
1088.0,0.005387
1089.0,0.004125
1090.0,0.004033
1091.0,0.004871
1092.0,0.005187
1093.0,0.002972
1094.0,0.004339
1095.0,0.002716
1096.0,0.002427
1097.0,0.00527
1098.0,0.00238
1099.0,0.002299
1100.0,0.001947
1101.0,0.002066
1102.0,0.001824
1103.0,0.001566
1104.0,0.001788
1105.0,0.001979
1106.0,0.00108
1107.0,0.001833
1108.0,0.00116
1109.0,0.00128
1110.0,0.00145
1111.0,0.0008511
1112.0,0.001427
1113.0,0.0006641
1114.0,0.0007381
1115.0,0.000604
1116.0,0.0004688
1117.0,0.0001687
1118.0,0.0005078
1119.0,0.0002486
1120.0,0.0003118
1121.0,0.0004139
1122.0,0.0001715
1123.0,0.000279
1124.0,0.0002347
1125.0,0.0003058
1126.0,0.000104
1127.0,0.0003429
1128.0,0.0002021
1129.0,0.0002141
1130.0,0.0001395
1131.0,0.0006473
1132.0,0.0005051
1133.0,0.000316
1134.0,7.877e-05
1135.0,2.952e-05
1136.0,0.00026
1137.0,0.0006224
1138.0,0.0004364
1139.0,0.0006552
1140.0,0.000543
1141.0,0.0004108
1142.0,0.0004722
1143.0,0.0006705
1144.0,0.0002308
1145.0,0.0002931
1146.0,0.000315
1147.0,0.0001084
1148.0,0.000571
1149.0,0.0004526
1150.0,0.0002437
1151.0,0.000415
1152.0,0.0005113
1153.0,0.0004989
1154.0,0.0002759
1155.0,0.0006512
1156.0,0.0005879
1157.0,0.0006769
1158.0,0.000654
1159.0,0.0007247
1160.0,0.0006318
1161.0,0.001017
1162.0,0.001432
1163.0,0.001511
1164.0,0.001675
1165.0,0.0009623
1166.0,0.001625
1167.0,0.001556
1168.0,0.001333
1169.0,0.001486
1170.0,0.001953
1171.0,0.001736
1172.0,0.003027
1173.0,0.001743
1174.0,0.001015
1175.0,0.002226
1176.0,0.003922
1177.0,0.002453
1178.0,0.001492
1179.0,0.003607
1180.0,0.003594
1181.0,0.001968
1182.0,0.0009654
1183.0,0.002037
1184.0,0.003211
1185.0,0.002302
1186.0,0.002497
1187.0,0.001892
1188.0,0.001107
1189.0,0.002141
1190.0,0.002861
1191.0,0.001815
1192.0,0.002937
1193.0,0.003755
1194.0,0.002808
1195.0,0.001924
1196.0,0.001622
1197.0,0.002681
1198.0,0.002688
1199.0,0.001357
1200.0,0.002218
1201.0,0.001769
1202.0,0.002488
1203.0,0.001705
1204.0,0.003506
1205.0,0.003453
1206.0,0.003678
1207.0,0.002119
1208.0,0.002344
1209.0,0.002687
1210.0,0.003577
1211.0,0.002901
1212.0,0.001624
1213.0,0.002967
1214.0,0.001886
1215.0,0.001683
1216.0,0.003357
1217.0,0.003038
1218.0,0.003257
1219.0,0.003064
1220.0,0.003306
1221.0,0.003561
1222.0,0.003357
1223.0,0.003183
1224.0,0.002804
1225.0,0.003161
1226.0,0.003723
1227.0,0.002474
1228.0,0.004256
1229.0,0.003619
1230.0,0.003393
1231.0,0.004611
1232.0,0.004606
1233.0,0.00281
1234.0,0.004908
1235.0,0.004549
1236.0,0.004844
1237.0,0.004056
1238.0,0.00483
1239.0,0.004799
1240.0,0.004876
1241.0,0.004593
1242.0,0.004754
1243.0,0.004771
1244.0,0.004606
1245.0,0.004748
1246.0,0.004749
1247.0,0.004545
1248.0,0.004404
1249.0,0.004543
1250.0,0.004345
1251.0,0.003984
1252.0,0.004411
1253.0,0.003658
1254.0,0.003315
1255.0,0.004264
1256.0,0.002984
1257.0,0.002762
1258.0,0.003594
1259.0,0.002158
1260.0,0.002308
1261.0,0.001315
1262.0,0.001024
1263.0,0.001029
1264.0,0.0006849
1265.0,0.00101
1266.0,0.0007882
1267.0,0.0009229
1268.0,0.0007104
1269.0,0.0003492
1270.0,0.0008538
1271.0,0.001381
1272.0,0.00142
1273.0,0.001331
1274.0,0.001464
1275.0,0.001585
1276.0,0.001833
1277.0,0.002117
1278.0,0.002622
1279.0,0.002623
1280.0,0.002855
1281.0,0.003104
1282.0,0.003294
1283.0,0.003432
1284.0,0.003735
1285.0,0.003625
1286.0,0.003931
1287.0,0.004009
1288.0,0.003733
1289.0,0.002322
1290.0,0.003843
1291.0,0.004099
1292.0,0.001919
1293.0,0.003587
1294.0,0.00328
1295.0,0.002315
1296.0,0.001786
1297.0,0.001526
1298.0,0.002237
1299.0,0.003278
1300.0,0.001259
1301.0,0.001168
1302.0,0.002193
1303.0,0.002318
1304.0,0.0007028
1305.0,0.001905
1306.0,0.001473
1307.0,0.001074
1308.0,0.001487
1309.0,0.001362
1310.0,0.001307
1311.0,0.001963
1312.0,0.001146
1313.0,0.0009937
1314.0,0.000532
1315.0,0.0005234
1316.0,0.00148
1317.0,0.002281
1318.0,0.002013
1319.0,0.0008732
1320.0,0.0005438
1321.0,0.000891
1322.0,0.0005341
1323.0,0.0003395
1324.0,0.000795
1325.0,0.0007661
1326.0,0.0006401
1327.0,0.0005217
1328.0,0.0003191
1329.0,0.0002229
1330.0,0.0002902
1331.0,0.000175
1332.0,0.0001777
1333.0,0.0002474
1334.0,0.0002178
1335.0,0.000291
1336.0,0.0002279
1337.0,0.0002024
1338.0,0.0002151
1339.0,0.0002144
1340.0,0.0002077
1341.0,0.000201
1342.0,0.0002106
1343.0,0.0001417
1344.0,8.464e-05
1345.0,0.0001217
1346.0,6.006e-05
1347.0,6.085e-05
1348.0,3.923e-06
1349.0,1.407e-05
1350.0,1.459e-05
1351.0,3.527e-06
1352.0,9.49e-07
1353.0,4.83e-08
1354.0,1.66e-07
1355.0,1.337e-09
1356.0,2.34e-08
1357.0,3.555e-08
1358.0,1.57e-09
1359.0,1.978e-10
1360.0,7.149e-10
1361.0,7.997e-13
1362.0,2.188e-15
1363.0,9.615e-10
1364.0,3.97e-10
1365.0,7.641e-16
1366.0,4.168e-09
1367.0,1.701e-09
1368.0,5.902e-18
1369.0,1.463e-10
1370.0,7.208e-11
1371.0,4.086e-12
1372.0,9.232e-10
1373.0,1.86e-08
1374.0,8.628e-08
1375.0,1.565e-07
1376.0,1.404e-07
1377.0,6.412e-08
1378.0,6.27e-07
1379.0,2.679e-08
1380.0,3.851e-08
1381.0,1.003e-09
1382.0,8.098e-10
1383.0,1.211e-11
1384.0,1.588e-10
1385.0,7.593e-10
1386.0,7.142e-10
1387.0,8.639e-08
1388.0,1.699e-09
1389.0,2.917e-07
1390.0,2.504e-07
1391.0,1.665e-07
1392.0,1.08e-08
1393.0,5.72e-08
1394.0,2.948e-08
1395.0,2.161e-10
1396.0,1.044e-12
1397.0,2.253e-08
1398.0,6.661e-07
1399.0,4.214e-07
1400.0,4.467e-13
1401.0,1.853e-12
1402.0,1.168e-06
1403.0,1.463e-06
1404.0,4.444e-07
1405.0,1.024e-10
1406.0,1.149e-06
1407.0,1.012e-07
1408.0,9.348e-07
1409.0,3.116e-07
1410.0,2.495e-07
1411.0,1.258e-06
1412.0,1.698e-06
1413.0,1.767e-05
1414.0,1.948e-07
1415.0,9.306e-08
1416.0,2.921e-05
1417.0,8.626e-06
1418.0,9.769e-06
1419.0,1.503e-06
1420.0,5.937e-06
1421.0,6.405e-06
1422.0,3.756e-05
1423.0,7.205e-06
1424.0,1.352e-05
1425.0,1.976e-05
1426.0,2.261e-05
1427.0,4.206e-05
1428.0,2.944e-06
1429.0,3.098e-05
1430.0,5.345e-05
1431.0,5.877e-05
1432.0,2.288e-06
1433.0,3.688e-05
1434.0,1.855e-05
1435.0,1.798e-05
1436.0,3.542e-05
1437.0,2.708e-05
1438.0,1.118e-05
1439.0,4.814e-05
1440.0,3.594e-05
1441.0,2.688e-05
1442.0,2.978e-05
1443.0,3.799e-05
1444.0,5.289e-05
1445.0,4.065e-05
1446.0,1.803e-05
1447.0,2.841e-05
1448.0,0.0001007
1449.0,8.65e-05
1450.0,2.094e-05
1451.0,8.245e-06
1452.0,5.092e-05
1453.0,6.711e-05
1454.0,0.000118
1455.0,5.435e-05
1456.0,7.245e-05
1457.0,9.873e-05
1458.0,0.0001181
1459.0,0.0001389
1460.0,7.118e-05
1461.0,7.322e-05
1462.0,0.0001087
1463.0,3.412e-05
1464.0,0.0001298
1465.0,7.768e-05
1466.0,5.144e-05
1467.0,2.632e-05
1468.0,6.088e-05
1469.0,7.553e-05
1470.0,3.629e-05
1471.0,1.287e-05
1472.0,3.449e-05
1473.0,5.364e-05
1474.0,7.966e-05
1475.0,0.0001529
1476.0,5.335e-05
1477.0,5.328e-05
1478.0,4.977e-05
1479.0,9.703e-05
1480.0,4.564e-05
1481.0,9.184e-05
1482.0,4.462e-05
1483.0,0.0001195
1484.0,0.0001128
1485.0,9.874e-05
1486.0,9.653e-05
1487.0,4.307e-05
1488.0,7.739e-05
1489.0,0.0001539
1490.0,0.0001551
1491.0,0.0001859
1492.0,0.0001335
1493.0,0.0001549
1494.0,0.0002192
1495.0,0.0001793
1496.0,0.0001555
1497.0,0.0004291
1498.0,0.0003324
1499.0,0.0002536
1500.0,0.0007697
1501.0,0.000633
1502.0,0.0007985
1503.0,0.0003496
1504.0,0.0001245
1505.0,0.0002544
1506.0,0.0009551
1507.0,0.0008483
1508.0,0.001117
1509.0,0.0004914
1510.0,0.00116
1511.0,0.0007253
1512.0,0.001243
1513.0,0.0004792
1514.0,0.0004506
1515.0,0.001403
1516.0,0.001285
1517.0,0.0007576
1518.0,0.001057
1519.0,0.0006699
1520.0,0.000999
1521.0,0.002449
1522.0,0.001375
1523.0,0.002499
1524.0,0.0017
1525.0,0.001076
1526.0,0.001414
1527.0,0.001471
1528.0,0.002183
1529.0,0.001765
1530.0,0.001524
1531.0,0.001626
1532.0,0.002597
1533.0,0.002797
1534.0,0.003029
1535.0,0.002604
1536.0,0.002629
1537.0,0.001427
1538.0,0.002838
1539.0,0.002825
1540.0,0.002818
1541.0,0.002752
1542.0,0.002663
1543.0,0.002892
1544.0,0.002778
1545.0,0.002947
1546.0,0.002587
1547.0,0.002765
1548.0,0.002782
1549.0,0.002966
1550.0,0.00287
1551.0,0.002732
1552.0,0.002946
1553.0,0.002877
1554.0,0.002742
1555.0,0.002873
1556.0,0.002785
1557.0,0.00286
1558.0,0.002877
1559.0,0.002852
1560.0,0.00278
1561.0,0.002821
1562.0,0.002764
1563.0,0.002665
1564.0,0.002638
1565.0,0.002888
1566.0,0.002698
1567.0,0.002726
1568.0,0.002662
1569.0,0.002827
1570.0,0.002799
1571.0,0.002786
1572.0,0.002784
1573.0,0.00268
1574.0,0.002502
1575.0,0.002449
1576.0,0.002173
1577.0,0.002098
1578.0,0.002098
1579.0,0.001937
1580.0,0.002025
1581.0,0.002005
1582.0,0.002016
1583.0,0.001963
1584.0,0.002362
1585.0,0.002465
1586.0,0.002453
1587.0,0.002331
1588.0,0.002586
1589.0,0.002545
1590.0,0.002481
1591.0,0.002622
1592.0,0.002563
1593.0,0.002688
1594.0,0.002666
1595.0,0.002654
1596.0,0.002511
1597.0,0.002386
1598.0,0.002668
1599.0,0.002692
1600.0,0.002746
1601.0,0.002584
1602.0,0.002502
1603.0,0.002727
1604.0,0.002681
1605.0,0.00272
1606.0,0.002671
1607.0,0.002708
1608.0,0.002452
1609.0,0.002593
1610.0,0.002502
1611.0,0.002569
1612.0,0.002656
1613.0,0.002516
1614.0,0.002617
1615.0,0.00256
1616.0,0.002539
1617.0,0.002394
1618.0,0.002617
1619.0,0.002376
1620.0,0.00254
1621.0,0.002503
1622.0,0.002521
1623.0,0.002585
1624.0,0.002446
1625.0,0.002386
1626.0,0.002405
1627.0,0.002488
1628.0,0.002372
1629.0,0.002455
1630.0,0.002381
1631.0,0.002141
1632.0,0.002317
1633.0,0.001735
1634.0,0.002323
1635.0,0.001714
1636.0,0.002064
1637.0,0.002205
1638.0,0.001267
1639.0,0.002155
1640.0,0.001206
1641.0,0.00198
1642.0,0.002244
1643.0,0.000916
1644.0,0.002388
1645.0,0.00143
1646.0,0.0008863
1647.0,0.002349
1648.0,0.0008958
1649.0,0.001938
1650.0,0.002047
1651.0,0.000711
1652.0,0.001792
1653.0,0.002247
1654.0,0.0009762
1655.0,0.002054
1656.0,0.001517
1657.0,0.001752
1658.0,0.002265
1659.0,0.002061
1660.0,0.002034
1661.0,0.002212
1662.0,0.001657
1663.0,0.002199
1664.0,0.002173
1665.0,0.0009214
1666.0,0.0001299
1667.0,0.0009556
1668.0,0.001841
1669.0,0.001937
1670.0,0.002188
1671.0,0.001873
1672.0,0.002085
1673.0,0.002157
1674.0,0.001649
1675.0,0.001778
1676.0,0.002078
1677.0,0.001689
1678.0,0.001297
1679.0,0.002123
1680.0,0.001682
1681.0,0.001302
1682.0,0.002087
1683.0,0.00216
1684.0,0.0006654
1685.0,0.002104
1686.0,0.002108
1687.0,0.001312
1688.0,0.00189
1689.0,0.001969
1690.0,0.001766
1691.0,0.0007215
1692.0,0.001543
1693.0,0.0021
1694.0,0.001376
1695.0,0.001871
1696.0,0.00205
1697.0,0.000431
1698.0,0.001742
1699.0,0.001822
1700.0,0.001462
1702.0,0.001734
1705.0,0.001328
1710.0,0.00114
1715.0,0.001448
1720.0,0.001508
1725.0,0.0006957
1730.0,0.001424
1735.0,0.0009389
1740.0,0.001168
1745.0,0.001466
1750.0,0.0005315
1755.0,0.0009782
1760.0,0.0004405
1765.0,0.000544
1770.0,0.0003064
1775.0,0.0003554
1780.0,0.0002145
1785.0,0.0001026
1790.0,4.38e-05
1795.0,1.639e-05
1800.0,1.128e-05
1805.0,4.478e-06
1810.0,2.909e-06
1815.0,8.411e-07
1820.0,2.104e-07
1825.0,2.746e-07
1830.0,6.695e-10
1835.0,1.014e-09
1840.0,5.916e-12
1845.0,6.326e-10
1850.0,2.856e-10
1855.0,2.73e-11
1860.0,1.564e-09
1865.0,2.18e-09
1870.0,1.193e-14
1875.0,2.156e-14
1880.0,1.148e-08
1885.0,6.12e-09
1890.0,3.357e-08
1895.0,1.948e-08
1900.0,8.327e-11
1905.0,5.672e-11
1910.0,2.747e-09
1915.0,2.677e-09
1920.0,7.02e-08
1925.0,1.649e-07
1930.0,9.526e-08
1935.0,7.262e-07
1940.0,7.213e-07
1945.0,2.971e-06
1950.0,5.777e-06
1955.0,5.151e-06
1960.0,9.059e-06
1965.0,0.0001629
1970.0,0.0001644
1975.0,0.0001781
1980.0,4.152e-05
1985.0,6.678e-05
1990.0,0.000373
1995.0,0.0002244
2000.0,0.0003869
2005.0,0.0002159
2010.0,0.0006976
2015.0,0.0001273
2020.0,0.0002588
2025.0,0.0005159
2030.0,0.0003021
2035.0,0.000668
2040.0,0.000461
2045.0,0.0005261
2050.0,0.0008413
2055.0,0.0005163
2060.0,0.0004341
2065.0,0.0007196
2070.0,0.0005918
2075.0,0.0007892
2080.0,0.0008487
2085.0,0.0008476
2090.0,0.0008505
2095.0,0.0007595
2100.0,0.0005186
2105.0,0.0007717
2110.0,0.0005275
2115.0,0.0007726
2120.0,0.0005105
2125.0,0.0006739
2130.0,0.0008157
2135.0,0.0008621
2140.0,0.0008781
2145.0,0.0008705
2150.0,0.0004761
2155.0,0.0004536
2160.0,0.0005199
2165.0,0.0004334
2170.0,0.0005894
2175.0,0.0004081
2180.0,0.0005494
2185.0,0.0003508
2190.0,0.0004953
2195.0,0.0004477
2200.0,9.295e-05
2205.0,0.0002759
2210.0,0.0006544
2215.0,0.000402
2220.0,0.0004924
2225.0,0.0003974
2230.0,0.0004047
2235.0,0.0003313
2240.0,0.0003168
2245.0,0.0001877
2250.0,0.0003088
2255.0,0.0001199
2260.0,0.0001057
2265.0,0.0001805
2270.0,7.367e-05
2275.0,6.466e-05
2280.0,0.0001701
2285.0,6.618e-05
2290.0,7.158e-05
2295.0,6.413e-05
2300.0,3.22e-05
2305.0,3.866e-05
2310.0,0.0001863
2315.0,4.012e-05
2320.0,1.658e-05
2325.0,0.0001
2330.0,5.245e-05
2335.0,7.237e-05
2340.0,1.374e-05
2345.0,1.608e-05
2350.0,1.246e-05
2355.0,1.359e-05
2360.0,1.577e-05
2365.0,5.728e-05
2370.0,3.803e-06
2375.0,1.234e-05
2380.0,4.09e-05
2385.0,5.634e-06
2390.0,6.087e-06
2395.0,7.3e-06
2400.0,7.784e-06
2405.0,1.537e-05
2410.0,1.173e-05
2415.0,3.574e-06
2420.0,3.11e-06
2425.0,3.931e-06
2430.0,5.877e-06
2435.0,1.588e-06
2440.0,5.762e-06
2445.0,2.233e-06
2450.0,1.398e-06
2455.0,3.862e-06
2460.0,3.577e-06
2465.0,2.496e-06
2470.0,1.648e-06
2475.0,1.597e-06
2480.0,7.509e-07
2485.0,4.86e-07
2490.0,2.795e-07
2495.0,2.418e-07
2500.0,5.999e-07
2505.0,1.22e-07
2510.0,1.797e-07
2515.0,5.862e-07
2520.0,2.136e-08
2525.0,2.436e-09
2530.0,1.695e-11
2535.0,3.75e-12
2540.0,8.896e-12
2545.0,6.899e-16
2550.0,2.797e-18
2555.0,1.343e-14
2560.0,4.03e-16
2565.0,9.021e-20
2570.0,2.686e-24
2575.0,1.699e-34
2580.0,1.772e-28
2585.0,3.7040000000000004e-42
2590.0,2.311e-38
2595.0,4.496e-40
2600.0,3.701e-35
2605.0,4.0900000000000006e-42
2610.0,1.408e-41
2615.0,1.4009999999999999e-45
2620.0,1.241e-35
2625.0,2.272e-35
2630.0,0.0
2635.0,1.183e-21
2640.0,2.562e-22
2645.0,1.117e-24
2650.0,1.112e-25
2655.0,1.338e-34
2660.0,1.126e-31
2665.0,1.121e-44
2670.0,0.0
2675.0,5.464999999999999e-44
2680.0,2.283e-30
2685.0,2.182e-31
2690.0,8.162e-31
2695.0,3.202e-33
2700.0,9.328e-29
2705.0,2.645e-26
2710.0,2.1060000000000003e-31
2715.0,2.6599999999999997e-29
2720.0,0.0
2725.0,5.956e-27
2730.0,1.736e-24
2735.0,1.98e-26
2740.0,3.577e-32
2745.0,4.612e-27
2750.0,2.585e-26
2755.0,4.159e-28
2760.0,6.231e-23
2765.0,2.924e-29
2770.0,1.437e-26
2775.0,1.774e-23
2780.0,8.261e-21
2785.0,3.1020000000000004e-20
2790.0,7.072e-18
2795.0,1.556e-18
2800.0,4.966e-15
2805.0,9.286e-17
2810.0,3.724e-13
2815.0,1.111e-13
2820.0,1.357e-15
2825.0,1.889e-11
2830.0,2.589e-10
2835.0,3.566e-15
2840.0,7.63e-12
2845.0,2.641e-09
2850.0,4.57e-11
2855.0,1.948e-11
2860.0,9.492e-10
2865.0,6.999e-09
2870.0,1.775e-10
2875.0,1.703e-08
2880.0,1.074e-08
2885.0,1.768e-08
2890.0,9.102e-09
2895.0,1.281e-07
2900.0,3.572e-08
2905.0,4.134e-09
2910.0,1.307e-07
2915.0,5.547e-08
2920.0,1.377e-07
2925.0,4.907e-08
2930.0,2.97e-07
2935.0,3.275e-07
2940.0,7.332e-08
2945.0,6.296e-08
2950.0,2.541e-07
2955.0,1.132e-07
2960.0,2.245e-07
2965.0,3.801e-07
2970.0,1.489e-08
2975.0,3.773e-08
2980.0,5.873e-08
2985.0,3.455e-07
2990.0,5.254e-07
2995.0,2.057e-07
3000.0,3.785e-07
3005.0,1.286e-07
3010.0,3.315e-07
3015.0,2.566e-07
3020.0,2.316e-08
3025.0,3.532e-07
3030.0,2.784e-07
3035.0,1.058e-07
3040.0,8.267e-08
3045.0,1.776e-07
3050.0,4.024e-08
3055.0,1.034e-08
3060.0,2.763e-07
3065.0,1.17e-07
3070.0,6.575e-08
3075.0,2.576e-07
3080.0,1.496e-07
3085.0,6.609e-08
3090.0,8.986e-08
3095.0,2.21e-08
3100.0,1.796e-07
3105.0,3.365e-08
3110.0,2.817e-08
3115.0,8.453e-08
3120.0,4.142e-07
3125.0,3.301e-06
3130.0,2.416e-07
3135.0,4.845e-07
3140.0,1.288e-07
3145.0,1.262e-07
3150.0,2.663e-07
3155.0,2.252e-07
3160.0,3.726e-07
3165.0,5.982e-07
3170.0,5.604e-07
3175.0,3.632e-07
3180.0,4.351e-07
3185.0,2.997e-07
3190.0,1.58e-07
3195.0,8.721e-08
3200.0,1.231e-08
3205.0,8.041e-09
3210.0,3.35e-09
3215.0,1.362e-08
3220.0,4.781e-08
3225.0,5.498e-09
3230.0,9.131e-09
3235.0,2.559e-07
3240.0,1.163e-07
3245.0,2.209e-08
3250.0,8.147e-08
3255.0,3.49e-07
3260.0,3.487e-08
3265.0,7.545e-08
3270.0,3.553e-08
3275.0,2.144e-07
3280.0,9.106e-08
3285.0,3.949e-07
3290.0,2.967e-07
3295.0,3.656e-08
3300.0,5.425e-08
3305.0,1.246e-07
3310.0,1.183e-07
3315.0,1.715e-10
3320.0,1.08e-09
3325.0,9.935e-08
3330.0,1.512e-07
3335.0,2.924e-07
3340.0,2.217e-06
3345.0,1.045e-07
3350.0,2.631e-07
3355.0,1.057e-07
3360.0,1.624e-07
3365.0,2.483e-07
3370.0,1.108e-07
3375.0,3.335e-07
3380.0,1.458e-07
3385.0,5.653e-07
3390.0,3.107e-07
3395.0,4.057e-07
3400.0,2.627e-06
3405.0,1.215e-07
3410.0,5.099e-07
3415.0,2.077e-07
3420.0,8.847e-06
3425.0,3.458e-07
3430.0,2.515e-07
3435.0,8.132e-06
3440.0,2.282e-07
3445.0,2.249e-06
3450.0,7.841e-07
3455.0,2.996e-07
3460.0,1.054e-05
3465.0,3.18e-07
3470.0,1.037e-05
3475.0,1.304e-06
3480.0,1.276e-06
3485.0,8.21e-06
3490.0,6.858e-07
3495.0,8.872e-06
3500.0,9.236e-06
3505.0,6.623e-06
3510.0,7.959e-06
3515.0,6.344e-06
3520.0,1.412e-05
3525.0,1.183e-05
3530.0,5.524e-06
3535.0,6.623e-07
3540.0,5.16e-07
3545.0,5.194e-07
3550.0,4.713e-06
3555.0,8.461e-07
3560.0,8.535e-06
3565.0,3.62e-06
3570.0,9.018e-07
3575.0,5.086e-07
3580.0,3.699e-06
3585.0,9.207e-07
3590.0,2.548e-06
3595.0,8.371e-06
3600.0,1.28e-05
3605.0,4.112e-06
3610.0,2.908e-06
3615.0,9.41e-06
3620.0,3.635e-05
3625.0,6.193e-06
3630.0,1.14e-05
3635.0,1.428e-05
3640.0,4.883e-05
3645.0,9.568e-06
3650.0,1.096e-05
3655.0,2.559e-05
3660.0,3.274e-05
3665.0,6.802e-06
3670.0,2.787e-06
3675.0,1.358e-07
3680.0,1.452e-06
3685.0,3.983e-06
3690.0,4.231e-06
3695.0,1.68e-05
3700.0,4.858e-05
3705.0,4.622e-05
3710.0,7.819e-06
3715.0,1.434e-05
3720.0,2.949e-05
3725.0,3.751e-05
3730.0,1.292e-05
3735.0,6.116e-06
3740.0,1.245e-05
3745.0,3.523e-05
3750.0,2.036e-05
3755.0,1.212e-05
3760.0,5.961e-06
3765.0,8.093e-06
3770.0,1.104e-05
3775.0,1.339e-05
3780.0,2.479e-05
3785.0,1.27e-05
3790.0,5.307e-06
3795.0,1.888e-05
3800.0,3.652e-05
3805.0,2.512e-05
3810.0,9.038e-06
3815.0,6.911e-06
3820.0,3.598e-05
3825.0,3.541e-05
3830.0,3.71e-05
3835.0,5.028e-06
3840.0,1.891e-05
3845.0,1.164e-05
3850.0,1.174e-05
3855.0,8.754e-06
3860.0,2.024e-06
3865.0,2.271e-06
3870.0,4.962e-07
3875.0,1.865e-07
3880.0,1.445e-07
3885.0,1.842e-07
3890.0,2.173e-07
3895.0,6.378e-07
3900.0,2.8e-06
3905.0,2.315e-06
3910.0,3.585e-07
3915.0,2.855e-07
3920.0,3.031e-07
3925.0,2.906e-07
3930.0,3.882e-07
3935.0,7.802e-07
3940.0,9.813e-07
3945.0,1.467e-06
3950.0,2.29e-06
3955.0,2.852e-06
3960.0,3.488e-06
3965.0,4.088e-06
3970.0,3.426e-06
3975.0,2.214e-06
3980.0,1.861e-06
3985.0,2.187e-06
3990.0,1.846e-06
3995.0,1.317e-06
4000.0,9.486e-07
